#     FILENAME=Skynet_60333_barnard_33-nb_107271_56634.A.raw.txt
#     BASENAME=Skynet_60333_barnard_33-nb_107271_56634
#      CONTROL=SKYNET
#     PROJCODE=Skynet_60333_barnard_33-nb_107271
#     DATAROOT=/raid/scratch/cyborg/SkynetData
#      DATADIR=/raid/scratch/cyborg
#     DATADIR2=/raid/scratch/cyborg/SkynetData/Skynet_60333_barnard_33-nb_1072
#     SCANNAME=2019_06_26_10
#     SRC_NAME=barnard_33-nb
#     OBSERVER=socamrad_21318
#     DATE_OBS=2024-01-24T03:19:52.000
#        OBSID=107271
#      SCANNUM=56634
#          MJD=60333.1387963
#          UTC=11992
#     SCANTYPE=ralongmap
#     DATAMODE=HIRES
#     RECEIVER=Rx1_2
#      OBSFREQ=1395.0000
# Actual_FREQ1=1421.8850,
# Actual_FREQ2=1406.2600
#    LO1Tuning=6856.2600
#     RFFILTER=1355_1435
#        OBSBW=-15.6250
#     EFFBANDW=15.6250
#        NCHAN=1024
#    STARTCHAN=51
#     STOPCHAN=972
#         TINT=0.1342
#         TBIN=0.00419430
#       ACCLEN=2048 
#     DURATION=176.09
#     EXPOSURE=118.38
#        FOCUS=37.049
#       RA,DEC=05:32:14.91, -04:40:06.56
#      RA(deg)=85.17580
#     DEC(deg)=-2.44630
#   WIDTH(deg)=4.4307x4.8706
#    AZIM(deg)=191.5431
#    ELEV(deg)=48.3010
#     COORDREF=RA_DEC_
#         HREF=85.2454
#         VREF=-2.4583
#      RADESYS=FK5
#       OFFSYS=AZEL
#      EQUINOX=2000.00
#     IFATTENS=11.00, 12.00
#   BALANCELEV=1.200 
#   POWER_XLYR=[1.72, 2.23] 
#       VELDEF=RADI-OBS 
#     VELOCITY=0.000 
#         NPOL=2 
#      POLMODE=Linear 
#      POLTYPE=XXYY 
#      WARNING=None 
#     NOISECAL=HI 
#       PRECAL=2 
#      POSTCAL=2 
#     CRYOTEMP=289 
#      BOXTEMP=23 
#         TSYS=XX1:133.61, YY1:135.99
#         TSYS=XX2:122.35, YY2:148.87
#         TCAL=XX1:9.17, YY1:10.07
#         TCAL=XX2:9.16, YY2:9.99
# Raw Continuum 
#                
#UTC_Time(s)   Ra(deg)  Dec(deg)   Az(deg)   El(deg)        XX1        YY1        XX2        YY2  Cal   Sweeps 
11992.000000  83.06220   -4.6685  193.4920   45.8379   258.0852   281.2469   310.4703   336.2367  -1    0  0 
11992.134218  83.06220   -4.6685  193.4920   45.8379   268.8888   294.2421   324.6568   350.5973   1    0  0 
11992.268436  83.06295   -4.6685  193.4920   45.8379   268.7510   293.6237   324.5458   349.9467   1    0  0 
11992.402654  83.06370   -4.6683  193.4920   45.8381   274.5650   301.0289   332.5043   357.3189   1    0  0 
11992.536872  83.06370   -4.6683  193.4920   45.8381   274.2742   301.0545   332.1378   357.8463   1    0  0 
11992.671090  83.06475   -4.6685  193.4920   45.8379   274.1229   301.2157   332.3588   358.0042   1    0  0 
11992.805308  83.06550   -4.6683  193.4920   45.8381   274.3294   300.9096   332.1202   357.5062   1    0  0 
11992.939526  83.06550   -4.6683  193.4920   45.8381   274.4807   301.2684   331.8314   358.2284   1    0  0 
11993.073744  83.06640   -4.6683  193.4920   45.8381   274.0849   301.0829   331.8309   358.0150   1    0  0 
11993.207962  83.06745   -4.6682  193.4920   45.8382   274.0558   300.4247   332.3918   357.6923   1    0  0 
11993.342180  83.06745   -4.6682  193.4920   45.8382   275.2273   300.9719   332.0301   357.8512   1    0  0 
11993.476398  83.06805   -4.6685  193.4920   45.8379   274.3626   301.2057   332.1741   357.5339   1    0  0 
11993.610616  83.06895   -4.6683  193.4920   45.8381   274.5501   301.0005   332.0169   357.8075   1    0  0 
11993.744834  83.06895   -4.6683  193.4920   45.8381   274.2047   300.7060   332.1132   357.8061   1    0  0 
11993.879052  83.06970   -4.6685  193.4920   45.8379   274.2778   300.8218   332.3318   357.5408   1    0  0 
11994.013270  83.07060   -4.6682  193.4920   45.8382   272.9438   299.4601   330.5035   356.1920  -1    0  0 
11994.147488  83.07060   -4.6682  193.4920   45.8382   262.1248   286.1954   316.0469   341.4166  -1    0  0 
11994.281706  83.07150   -4.6683  193.4920   45.8381   261.0431   285.1402   314.7002   340.1964  -1    0  0 
11994.415924  83.07225   -4.6683  193.4920   45.8381   256.4793   279.5098   308.7150   334.5058   0    0  0 
11994.550142  83.07225   -4.6683  193.4920   45.8381   256.5824   279.6587   308.5928   334.2537   0    0  0 
11994.684360  83.07300   -4.6685  193.4920   45.8379   256.1794   278.8989   308.7807   334.3495   0    0  0 
11994.818578  83.07300   -4.6685  193.4920   45.8379   256.1747   279.1002   308.5369   334.3300   0    0  0 
11994.952796  83.07405   -4.6685  193.4920   45.8379   256.4790   279.7914   308.7184   334.1710   0    0  0 
11995.087014  83.07465   -4.6685  193.4920   45.8379   256.0866   279.5736   308.1837   334.7206   0    0  0 
11995.221232  83.07465   -4.6685  193.4920   45.8379   256.1933   279.5001   308.5462   333.8368   0    0  0 
11995.355450  83.07570   -4.6683  193.4920   45.8381   256.0006   279.6661   308.0263   334.0018   0    0  0 
11995.489668  83.07675   -4.6683  193.4920   45.8381   256.1168   279.3151   308.3812   334.0820   0    0  0 
11995.623886  83.07675   -4.6683  193.4920   45.8381   256.1084   279.0233   308.1065   333.7914   0    0  0 
11995.758104  83.07750   -4.6684  193.4920   45.8379   256.6476   279.0231   308.6729   333.8932   0    0  0 
11995.892322  83.07840   -4.6682  193.4920   45.8381   256.4714   278.8779   308.3507   333.9756   0    0  0 
11996.026540  83.07840   -4.6682  193.4920   45.8381   256.4589   278.8762   308.4826   334.4400   0    0  0 
11996.160758  83.07930   -4.6684  193.4920   45.8379   256.4245   279.1794   308.3626   334.4728   0    0  0 
11996.294976  83.07990   -4.6682  193.4920   45.8381   256.7262   279.1526   308.7885   334.4844   0    0  0 
11996.429194  83.07990   -4.6682  193.4920   45.8381   256.2149   279.2873   308.1171   333.8403   0    0  0 
11996.563412  83.08095   -4.6684  193.4920   45.8379   256.7404   279.5928   308.2981   334.1280   0    0  0 
11996.697630  83.08170   -4.6682  193.4920   45.8381   256.3205   279.2936   308.8129   334.4368   0    0  0 
11996.831848  83.08170   -4.6682  193.4920   45.8381   256.1474   279.2852   308.3037   333.9774   0    0  1 
11996.966066  83.08275   -4.6682  193.4920   45.8381   256.1732   279.1357   307.9130   334.3502   0    0  1 
11997.100284  83.08350   -4.6682  193.4920   45.8381   256.3027   279.5670   307.8959   334.3967   0    0  1 
11997.234502  83.08350   -4.6682  193.4920   45.8381   256.1883   279.5136   308.2934   334.7341   0    0  1 
11997.368720  83.08410   -4.6684  193.4920   45.8379   256.0610   279.2707   308.0752   334.2127   0    0  1 
11997.502938  83.08515   -4.6682  193.4920   45.8381   256.0195   279.6462   307.9431   333.6849   0    0  1 
11997.637156  83.08515   -4.6682  193.4920   45.8381   255.9465   279.4449   308.2836   334.7565   0    0  1 
11997.771374  83.08620   -4.6682  193.4920   45.8381   256.0308   279.4107   307.7120   334.4771   0    0  1 
11997.905592  83.08620   -4.6682  193.4920   45.8381   256.1140   279.2948   307.9045   334.5860   0    0  1 
11998.039810  83.08800   -4.6682  193.4920   45.8381   256.3600   278.9581   307.9245   334.2067   0    0  1 
11998.174028  83.08800   -4.6682  193.4920   45.8381   256.2820   279.6051   308.3890   334.1395   0    0  1 
11998.308246  83.08800   -4.6682  193.4920   45.8381   256.2339   279.0163   308.5068   334.6368   0    0  1 
11998.442464  83.09070   -4.6685  193.4900   45.8381   256.4690   279.7349   308.5519   334.0461   0    0  1 
11998.576682  83.09070   -4.6685  193.4900   45.8381   256.0562   279.4116   308.0698   334.9027   0    0  1 
11998.710900  83.09070   -4.6685  193.4900   45.8381   256.2664   279.2991   308.1749   334.4960   0    0  1 
11998.845118  83.24565   -4.4935  193.3210   46.0387   256.0601   278.7347   308.6117   334.3982   0    0  1 
11998.979336  83.39295   -4.4361  193.1290   46.1220   256.2032   279.6122   308.0741   334.7667   0    0  1 
11999.113554  83.39295   -4.4361  193.1290   46.1220   255.9887   279.7127   308.0966   335.0612   0    0  1 
11999.247772  83.39295   -4.4361  193.1290   46.1220   255.8869   279.8107   308.2878   334.6003   0    0  1 
11999.381990  83.59335   -4.4101  192.8530   46.1836   256.0237   279.3515   308.0385   334.5847   0    0  1 
11999.516208  83.59335   -4.4101  192.8530   46.1836   255.9687   279.3135   307.9532   334.4040   0    0  1 
11999.650426  83.88045   -4.3859  192.4530   46.2578   255.7159   279.4341   307.6434   334.6838   0    0  1 
11999.784644  83.88045   -4.3859  192.4530   46.2578   255.9199   279.7128   307.7114   334.5509   0    0  1 
11999.918862  83.88045   -4.3859  192.4530   46.2578   256.0663   279.5040   308.0491   334.2943   0    0  1 
12000.053080  84.40605   -4.3906  191.7050   46.3414   256.1034   279.4597   307.8405   334.4962   0    0  1 
12000.187298  84.67305   -4.3966  191.3230   46.3783   256.1477   279.0046   307.6353   334.5250   0    0  1 
12000.321516  84.67305   -4.3966  191.3230   46.3783   256.0522   279.2534   307.4892   334.4549   0    0  1 
12000.455734  84.67305   -4.3966  191.3230   46.3783   256.1016   279.0805   308.1386   333.6343   0    0  1 
12000.589952  85.20780   -4.4178  190.5550   46.4390   255.9215   278.5184   307.8141   333.4553   0    0  1 
12000.724170  85.20780   -4.4178  190.5550   46.4390   255.9186   278.4054   307.5401   333.7788   0    0  1 
12000.858388  85.31145   -4.4213  190.4060   46.4507   255.9793   278.6094   307.1360   333.3867   0    0  1 
12000.992606  85.46550   -4.4287  190.1840   46.4655   255.5041   278.6625   307.2050   334.0876   0    0  1 
12001.126824  85.46550   -4.4287  190.1840   46.4655   255.7272   278.7889   306.9072   333.9034   0    0  1 
12001.261042  85.69365   -4.4400  189.8550   46.4864   255.8054   278.8859   306.9472   334.0484   0    0  1 
12001.395260  85.69365   -4.4400  189.8550   46.4864   255.7872   278.8199   307.5295   333.8387   0    0  1 
12001.529478  86.25615   -4.4550  189.0450   46.5462   255.7353   278.1883   307.1634   333.9397   0    0  0 
12001.663696  86.48730   -4.4602  188.7120   46.5699   255.9743   278.3042   307.4754   333.2749   0    0  0 
12001.797914  86.48730   -4.4602  188.7120   46.5699   255.6377   278.3543   307.4185   333.6006   0    0  0 
12001.932132  86.48730   -4.4602  188.7120   46.5699   256.2625   278.7265   307.3832   333.6471   0    0  0 
12002.066350  86.74065   -4.4626  188.3470   46.5980   255.9842   278.6649   306.8744   333.6636   0    0  0 
12002.200568  86.74065   -4.4626  188.3470   46.5980   255.5264   278.9726   307.0602   334.2768   0    0  0 
12002.334786  86.96955   -4.5333  188.0060   46.5541   255.6012   278.7175   306.8014   333.6746   0    0  0 
12002.469004  87.17280   -4.5117  187.7170   46.5982   255.8185   279.2608   307.0939   334.2280   0    0  0 
12002.603222  87.17280   -4.5117  187.7170   46.5982   255.9689   278.7028   307.0140   333.8856   0    0  0 
12002.737440  87.33510   -4.4972  187.4860   46.6301   256.1445   278.1864   307.5297   333.7360   0    0  0 
12002.871658  87.40080   -4.5053  187.3910   46.6289   255.9110   278.3605   307.5288   333.6562   0    0  0 
12003.005876  87.40080   -4.5053  187.3910   46.6289   255.8314   278.3788   307.7223   333.8787   0    0  0 
12003.140094  87.43365   -4.4894  187.3470   46.6481   255.5265   277.9554   307.4318   333.8372   0    0  0 
12003.274312  87.42405   -4.4888  187.3620   46.6476   255.6838   277.8759   307.8461   333.1064   0    0  0 
12003.408530  87.42405   -4.4888  187.3620   46.6476   256.0009   278.3230   307.9265   333.4195   0    1  1 
12003.542748  87.43650   -4.4798  187.3470   46.6577   255.9311   278.3703   307.4158   333.2323   0    1  1 
12003.676966  87.44025   -4.4775  187.3430   46.6603   255.8542   278.3967   307.2942   333.5231   0    1  1 
12003.811184  87.44025   -4.4775  187.3430   46.6603   255.6216   278.5530   307.2299   333.4624   0    1  1 
12003.945402  87.44355   -4.4798  187.3390   46.6583   255.8404   278.1539   307.5999   333.3166   0    1  1 
12004.079620  87.44805   -4.4754  187.3340   46.6631   255.7929   278.3193   307.2965   333.8975   0    1  1 
12004.213838  87.44805   -4.4754  187.3340   46.6631   255.8832   278.2870   307.4204   333.2042   0    1  1 
12004.348056  87.44895   -4.4768  187.3340   46.6617   255.8267   278.1293   307.4089   333.8877   0    1  1 
12004.482274  87.45285   -4.4758  187.3310   46.6629   256.0834   278.2738   307.6974   333.4744   0    1  1 
12004.616492  87.45285   -4.4758  187.3310   46.6629   256.1202   278.4816   307.5138   333.8460   0    1  1 
12004.750710  87.45540   -4.4754  187.3290   46.6634   255.5466   278.4308   307.3652   333.2859   0    1  1 
12004.884928  87.45540   -4.4754  187.3290   46.6634   256.0575   278.5236   307.3439   333.5721   0    1  1 
12005.019146  87.45540   -4.4754  187.3290   46.6634   255.3562   278.8128   307.1763   334.2930   0    1  1 
12005.153364  87.43710   -4.4970  187.3540   46.6399   255.3923   278.6702   307.2668   333.7139   0    1  1 
12005.287582  87.43710   -4.4970  187.3540   46.6399   255.3316   278.6021   307.1315   333.9290   0    1  1 
12005.421800  87.43710   -4.4970  187.3540   46.6399   255.3414   278.1601   307.0180   333.6569   0    1  1 
12005.556018  87.32310   -4.6019  187.5040   46.5233   255.5317   278.1643   307.2009   333.5106   0    1  1 
12005.690236  87.01590   -4.6677  187.9390   46.4239   255.8169   278.2134   307.0179   333.6245   0    1  1 
12005.824454  87.01590   -4.6677  187.9390   46.4239   255.2433   278.3654   306.9272   333.3726   0    1  1 
12005.958672  87.01590   -4.6677  187.9390   46.4239   254.8822   278.3731   306.4566   333.3697   0    1  1 
12006.092890  86.71425   -4.7036  188.3690   46.3532   254.9807   278.3512   306.3700   333.4667   0    1  1 
12006.227108  86.71425   -4.7036  188.3690   46.3532   255.3519   278.1479   307.1440   333.5723   0    1  1 
12006.361326  86.40105   -4.7214  188.8170   46.2973   255.4845   278.5783   307.0454   333.0506   0    1  1 
12006.495544  86.40105   -4.7214  188.8170   46.2973   255.4986   278.3314   306.8177   333.8545   0    1  1 
12006.629762  86.40105   -4.7214  188.8170   46.2973   255.4929   278.2768   307.0651   333.3050   0    1  1 
12006.763980  86.15535   -4.7335  189.1680   46.2540   255.6181   278.0301   307.2779   333.2318   0    1  1 
12006.898198  85.57695   -4.7532  189.9940   46.1561   255.5987   277.9883   306.0953   333.4932   0    1  1 
12007.032416  85.57695   -4.7532  189.9940   46.1561   255.5934   278.0530   306.8843   332.9208   0    1  1 
12007.166634  85.57695   -4.7532  189.9940   46.1561   256.0713   278.9744   307.6579   334.3451   0    1  1 
12007.300852  85.34175   -4.7606  190.3290   46.1151   255.9354   278.1649   307.6545   333.8517   0    1  1 
12007.435070  85.34175   -4.7606  190.3290   46.1151   256.2617   278.7018   308.0811   333.9730   0    1  1 
12007.569288  85.07850   -4.7663  190.7040   46.0705   256.4259   279.0379   308.0650   334.8431   0    1  1 
12007.703506  84.76155   -4.7763  191.1540   46.0120   256.7413   279.5359   308.3405   334.6734   0    1  1 
12007.837724  84.76155   -4.7763  191.1540   46.0120   261.6641   283.7497   314.3595   339.7411   0    1  1 
12007.971942  84.49935   -4.7819  191.5260   45.9647   263.8841   285.8870   317.6836   343.0191   0    1  1 
12008.106160  84.10290   -4.7874  192.0880   45.8937   265.9586   288.0047   320.3728   344.9195   0    1  0 
12008.240378  84.10290   -4.7874  192.0880   45.8937   264.1867   286.9457   318.0374   343.5354   0    1  0 
12008.374596  84.10290   -4.7874  192.0880   45.8937   260.5533   283.1514   313.4089   339.6140   0    1  0 
12008.508814  83.75865   -4.7872  192.5760   45.8346   258.5344   280.5815   310.7407   336.9167   0    1  0 
12008.643032  83.75865   -4.7872  192.5760   45.8346   255.6331   278.5683   307.2825   333.7183   0    1  0 
12008.777250  83.45085   -4.7812  193.0130   45.7855   255.7201   278.5150   307.3329   333.3406   0    1  0 
12008.911468  83.25660   -4.6890  193.0130   45.7855   255.8682   279.0533   307.4896   334.3389   0    1  0 
12009.045686  83.25660   -4.6890  193.3120   45.8406   255.5561   278.9196   307.0317   334.0547   0    1  0 
12009.179904  83.11110   -4.5145  193.5660   45.9848   255.7243   278.8575   307.3825   334.5974   0    1  0 
12009.314122  83.11110   -4.5145  193.5660   45.9848   255.3968   278.8208   306.7454   334.2980   0    1  0 
12009.448340  83.03865   -4.4281  193.6930   46.0559   255.7641   278.9359   307.5811   333.9641   0    1  0 
12009.582558  83.02305   -4.3918  193.7260   46.0885   255.4154   278.7666   307.4500   334.1178   0    1  0 
12009.716776  83.02305   -4.3918  193.7260   46.0885   256.0734   278.4442   307.4681   334.4269   0    1  0 
12009.850994  83.03040   -4.3414  193.7310   46.1392   255.8607   278.6351   307.7945   334.0220   0    1  0 
12009.985212  83.02350   -4.3312  193.7450   46.1477   255.8008   278.0691   307.0563   333.5328   0    1  0 
12010.119430  83.02350   -4.3312  193.7450   46.1477   255.8590   278.7463   306.8380   334.4322   0    1  0 
12010.253648  83.02380   -4.3188  193.7490   46.1598   255.8878   278.6195   307.7068   334.5479   0    1  0 
12010.387866  83.02305   -4.3087  193.7540   46.1695   255.7651   278.1784   307.4468   334.0715   0    2  1 
12010.522084  83.02305   -4.3087  193.7540   46.1695   255.3954   278.9671   307.8182   333.9782   0    2  1 
12010.656302  83.02260   -4.3034  193.7570   46.1745   255.7413   278.6225   307.2501   334.4636   0    2  1 
12010.790520  83.02305   -4.2967  193.7600   46.1809   255.2936   278.5039   307.0756   333.7456   0    2  1 
12010.924738  83.02305   -4.2967  193.7600   46.1809   255.6222   278.7397   307.3060   333.5435   0    2  1 
12011.058956  83.02455   -4.2931  193.7600   46.1846   255.6980   278.5641   306.8133   333.5969   0    2  1 
12011.193174  83.02485   -4.2918  193.7610   46.1858   255.1372   278.2432   307.3862   334.1348   0    2  1 
12011.327392  83.02485   -4.2918  193.7610   46.1858   255.8012   277.8923   307.3534   333.4136   0    2  1 
12011.461610  83.02710   -4.2897  193.7610   46.1879   255.7968   278.4630   307.8095   333.8775   0    2  1 
12011.595828  83.02800   -4.2907  193.7610   46.1869   255.6820   278.0555   307.1710   334.0521   0    2  1 
12011.730046  83.02800   -4.2907  193.7610   46.1869   255.8302   278.6859   307.7277   334.2547   0    2  1 
12011.864264  83.02800   -4.2907  193.7610   46.1869   255.3912   278.6028   307.4084   333.7734   0    2  1 
12011.998482  83.03625   -4.2869  193.7520   46.1920   255.4238   278.4783   307.4560   334.0808   0    2  1 
12012.132700  83.03625   -4.2869  193.7520   46.1920   255.6634   277.9875   307.2768   333.4621   0    2  1 
12012.266918  83.03625   -4.2869  193.7520   46.1920   255.4285   278.6474   306.8850   333.6132   0    2  1 
12012.401136  83.23605   -4.0869  193.5260   46.4260   255.5292   278.7442   307.0230   333.9668   0    2  1 
12012.535354  83.23605   -4.0869  193.5260   46.4260   255.5064   278.4480   307.0496   333.5181   0    2  1 
12012.669572  83.35875   -4.0499  193.3620   46.4851   255.2447   278.2439   306.4743   333.8010   0    2  1 
12012.803790  83.35875   -4.0499  193.3620   46.4851   255.4628   278.0783   306.8292   334.2455   0    2  1 
12012.938008  83.35875   -4.0499  193.3620   46.4851   255.8503   278.4422   306.6364   333.5034   0    2  1 
12013.072226  83.52210   -4.0352  193.1340   46.5295   255.7978   278.3975   306.7117   334.1480   0    2  1 
12013.206444  83.98860   -4.0110  192.4750   46.6361   255.5207   278.3530   306.5214   333.5310   0    2  1 
12013.340662  83.98860   -4.0110  192.4750   46.6361   255.1352   278.1570   306.7483   333.9361   0    2  1 
12013.474880  83.98860   -4.0110  192.4750   46.6361   255.1832   278.6737   306.9206   333.8474   0    2  1 
12013.609098  84.21870   -4.0145  192.1450   46.6720   255.7445   278.6874   307.1030   334.1622   0    2  1 
12013.743316  84.21870   -4.0145  192.1450   46.6720   255.3027   278.3834   306.9593   334.1196   0    2  1 
12013.877534  84.71340   -4.0268  191.4330   46.7410   255.3279   278.2289   306.7541   334.2726   0    2  1 
12014.011752  84.71340   -4.0268  191.4330   46.7410   255.5988   278.5149   306.7495   334.7141   0    2  1 
12014.145970  84.71340   -4.0268  191.4330   46.7410   255.4713   278.4992   306.6373   333.4411   0    2  1 
12014.280188  85.01745   -4.0361  190.9940   46.7793   255.3531   278.4858   306.4157   333.6640   0    2  1 
12014.414406  85.27170   -4.0453  190.6260   46.8086   255.2322   278.1155   306.5761   334.0101   0    2  1 
12014.548624  85.27170   -4.0453  190.6260   46.8086   255.5551   278.4838   306.9140   333.5984   0    2  1 
12014.682842  85.50045   -4.0572  190.2940   46.8303   255.1492   278.4931   306.5651   333.6556   0    2  1 
12014.817060  85.83045   -4.0661  189.8160   46.8679   255.6326   278.1718   306.6044   333.6408   0    2  1 
12014.951278  85.83045   -4.0661  189.8160   46.8679   255.0257   278.3954   306.7011   333.3720   0    2  1 
12015.085496  86.28660   -4.0807  189.1540   46.9142   254.9949   278.1065   306.1904   333.0024   0    2  1 
12015.219714  86.54220   -4.0848  188.7830   46.9424   254.9786   277.5348   306.5501   333.1153   0    2  0 
12015.353932  86.54220   -4.0848  188.7830   46.9424   255.2156   278.2201   306.1256   333.6552   0    2  0 
12015.488150  86.54220   -4.0848  188.7830   46.9424   255.4451   278.4410   306.7511   333.6371   0    2  0 
12015.622368  86.76885   -4.0884  188.4540   46.9664   255.3745   278.4330   307.1096   333.7869   0    2  0 
12015.756586  86.76885   -4.0884  188.4540   46.9664   255.4520   278.2792   307.2647   333.5595   0    2  0 
12015.890804  87.00315   -4.1623  188.1020   46.9202   255.6273   278.3428   306.4441   334.5106   0    2  0 
12016.025022  87.00315   -4.1623  188.1020   46.9202   255.4675   278.1734   306.6844   333.5288   0    2  0 
12016.159240  87.10020   -4.1720  187.9600   46.9216   255.4454   278.3136   307.0642   334.1843   0    2  0 
12016.293458  87.30855   -4.1243  187.6660   46.9921   255.4613   278.4044   306.5259   334.1108   0    2  0 
12016.427676  87.30855   -4.1243  187.6660   46.9921   255.5200   278.3942   306.2141   334.3616   0    2  0 
12016.561894  87.40095   -4.1369  187.5310   46.9894   255.1624   278.3062   306.5193   334.6929   0    2  0 
12016.696112  87.43365   -4.1262  187.4860   47.0035   255.8099   277.8861   306.5324   333.8918   0    2  0 
12016.830330  87.43365   -4.1262  187.4860   47.0035   255.4340   278.0929   306.7024   333.6657   0    3  1 
12016.964548  87.42615   -4.1208  187.4990   47.0079   255.1140   278.2582   306.5991   333.2793   0    3  1 
12017.098766  87.43320   -4.1184  187.4900   47.0110   255.2168   278.0415   306.5875   334.2614   0    3  1 
12017.232984  87.43320   -4.1184  187.4900   47.0110   255.3723   278.6827   306.6075   334.5656   0    3  1 
12017.367202  87.43965   -4.1118  187.4830   47.0182   255.4120   278.6988   306.8773   334.4780   0    3  1 
12017.501420  87.44265   -4.1127  187.4800   47.0175   255.4420   278.1488   306.6361   333.6741   0    3  1 
12017.635638  87.44265   -4.1127  187.4800   47.0175   255.2119   278.1467   306.0141   334.4963   0    3  1 
12017.769856  87.44760   -4.1067  187.4750   47.0239   254.9268   277.9845   306.5697   333.3930   0    3  1 
12017.904074  87.45285   -4.1062  187.4700   47.0248   254.9380   278.1523   306.1993   333.6282   0    3  1 
12018.038292  87.45285   -4.1062  187.4700   47.0248   255.1583   278.0661   306.7356   333.3399   0    3  1 
12018.172510  87.45285   -4.1062  187.4700   47.0248   255.0295   278.1510   306.2843   333.9801   0    3  1 
12018.306728  87.45420   -4.1080  187.4700   47.0229   255.3050   278.2814   306.7349   334.3868   0    3  1 
12018.440946  87.45420   -4.1080  187.4700   47.0229   255.2794   278.0830   306.4768   334.4175   0    3  1 
12018.575164  87.41235   -4.1537  187.5250   46.9729   254.8499   278.4548   306.7577   334.8528   0    3  1 
12018.709382  87.41235   -4.1537  187.5250   46.9729   255.1354   277.9826   306.5202   333.8889   0    3  1 
12018.843600  87.41235   -4.1537  187.5250   46.9729   255.4386   278.4968   306.5719   334.2124   0    3  1 
12018.977818  87.28065   -4.2600  187.7010   46.8527   255.4882   278.0284   306.9974   333.8084   0    3  1 
12019.112036  87.07380   -4.2933  187.9980   46.7964   255.3406   278.3597   306.3749   334.1309   0    3  1 
12019.246254  87.07380   -4.2933  187.9980   46.7964   255.4815   278.1894   306.7851   334.1180   0    3  1 
12019.380472  87.07380   -4.2933  187.9980   46.7964   254.9278   277.9131   306.2504   334.0958   0    3  1 
12019.514690  87.07380   -4.2933  187.9980   46.7964   254.9781   278.4054   306.3498   333.6016   0    3  1 
12019.648908  86.82600   -4.3318  188.3520   46.7293   254.9438   278.5689   306.5636   334.2231   0    3  1 
12019.783126  86.29590   -4.3643  189.1150   46.6313   255.4113   278.1804   306.3629   333.9235   0    3  1 
12019.917344  86.29590   -4.3643  189.1150   46.6313   255.2501   278.1934   306.1289   334.1378   0    3  1 
12020.051562  86.29590   -4.3643  189.1150   46.6313   255.0992   278.2740   306.4845   333.9464   0    3  1 
12020.185780  85.71585   -4.3880  189.9490   46.5297   255.5802   277.8938   306.4857   333.9442   0    3  1 
12020.319998  85.71585   -4.3880  189.9490   46.5297   254.9602   278.0703   306.5960   333.4692   0    3  1 
12020.454216  85.71585   -4.3880  189.9490   46.5297   255.2588   278.2478   305.9949   333.6185   0    3  1 
12020.588434  85.24590   -4.4031  190.6230   46.4466   255.3072   278.0121   306.3499   333.7457   0    3  1 
12020.722652  85.24590   -4.4031  190.6230   46.4466   255.4123   278.3768   306.9643   333.9392   0    3  1 
12020.856870  85.06320   -4.4059  190.8850   46.4162   255.6416   278.3079   307.0067   334.6533   0    3  1 
12020.991088  84.90555   -4.4130  191.1100   46.3848   256.1751   278.5681   306.8291   334.5231   0    3  1 
12021.125306  84.90555   -4.4130  191.1100   46.3848   255.3794   278.8829   306.6327   334.8012   0    3  1 
12021.259524  84.67305   -4.4190  191.4420   46.3421   255.8730   279.2299   306.7738   334.7862   0    3  1 
12021.393742  84.09345   -4.4292  192.2690   46.2358   255.4482   278.8875   306.7703   334.6743   0    3  1 
12021.527960  84.09345   -4.4292  192.2690   46.2358   255.3780   278.4736   306.7026   334.8548   0    3  0 
12021.662178  83.85690   -4.4311  192.6060   46.1929   255.3520   278.9185   306.8735   334.6865   0    3  0 
12021.796396  83.85690   -4.4311  192.6060   46.1929   255.3186   279.1184   306.8482   334.4814   0    3  0 
12021.930614  83.85690   -4.4311  192.6060   46.1929   255.7871   278.5976   307.1285   334.5609   0    3  0 
12022.064832  83.59665   -4.4303  192.9770   46.1472   255.7199   278.3120   306.9910   333.7997   0    3  0 
12022.199050  83.33265   -4.3769  193.3670   46.1512   255.4632   278.2709   306.6837   334.0769   0    3  0 
12022.333268  83.33265   -4.3769  193.3670   46.1512   254.9478   278.2212   306.0843   333.7440   0    3  0 
12022.467486  83.18100   -4.2412  193.6200   46.2561   254.9136   278.1664   306.0564   333.8550   0    3  0 
12022.601704  83.08680   -4.1224  193.7880   46.3548   254.1355   278.2455   305.7561   334.0499   0    3  0 
12022.735922  83.08680   -4.1224  193.7880   46.3548   254.4630   278.3212   305.8293   334.2344   0    3  0 
12022.870140  83.03535   -4.0512  193.8820   46.4147   254.8969   278.0432   306.1385   334.2455   0    3  0 
12023.004358  83.02635   -3.9983  193.9110   46.4648   255.0118   278.0225   305.6188   333.9836   0    3  0 
12023.138576  83.02635   -3.9983  193.9110   46.4648   254.9109   277.9368   305.9036   333.5045   0    3  0 
12023.272794  83.02950   -3.9695  193.9160   46.4935   254.7797   277.6964   306.2955   333.6612   0    3  0 
12023.407012  83.02485   -3.9581  193.9270   46.5036   254.6875   277.9056   306.0030   332.7901   0    3  0 
12023.541230  83.02485   -3.9581  193.9270   46.5036   254.8428   277.5795   305.9281   333.2704   0    3  0 
12023.675448  83.02515   -3.9460  193.9310   46.5154   255.1210   277.7051   306.4887   333.3387   0    4  1 
12023.809666  83.02350   -3.9351  193.9380   46.5256   255.0506   277.4183   305.9489   333.3732   0    4  1 
12023.943884  83.02350   -3.9351  193.9380   46.5256   254.9529   277.4193   306.5406   333.5339   0    4  1 
12024.078102  83.02410   -3.9311  193.9390   46.5295   255.3434   277.6964   306.3747   333.3457   0    4  1 
12024.212320  83.02410   -3.9311  193.9390   46.5295   255.0997   277.5066   306.1594   333.5234   0    4  1 
12024.346538  83.02470   -3.9265  193.9410   46.5340   255.4014   278.1151   306.3631   333.2897   0    4  1 
12024.480756  83.02485   -3.9237  193.9430   46.5365   255.3590   277.5162   306.7132   333.4785   0    4  1 
12024.614974  83.02485   -3.9237  193.9430   46.5365   255.1725   277.9772   306.8092   333.3132   0    4  1 
12024.749192  83.02665   -3.9224  193.9430   46.5379   254.8063   278.4097   306.1978   333.9898   0    4  1 
12024.883410  83.02800   -3.9213  193.9430   46.5390   255.1124   277.7521   306.1824   333.3209   0    4  1 
12025.017628  83.02800   -3.9213  193.9430   46.5390   255.2512   277.9267   306.5683   333.1118   0    4  1 
12025.151846  83.02800   -3.9213  193.9430   46.5390   255.1380   277.4542   305.7949   333.3961   0    4  1 
12025.286064  83.05260   -3.9007  193.9160   46.5637   254.9728   277.8756   306.0197   333.8366   0    4  1 
12025.420282  83.05260   -3.9007  193.9160   46.5637   255.0200   278.0625   305.9178   333.3581   0    4  1 
12025.554500  83.05260   -3.9007  193.9160   46.5637   254.7439   277.7571   305.9832   333.6664   0    4  1 
12025.688718  83.12775   -3.8209  193.8320   46.6564   254.6614   277.5281   305.8347   333.8932   0    4  1 
12025.822936  83.12775   -3.8209  193.8320   46.6564   254.8867   278.0190   305.9486   333.2924   0    4  1 
12025.957154  83.32800   -3.6923  193.5830   46.8205   254.7077   277.6271   306.2494   333.4816   0    4  1 
12026.091372  83.32800   -3.6923  193.5830   46.8205   254.9564   277.7116   306.2343   333.6444   0    4  1 
12026.225590  83.32800   -3.6923  193.5830   46.8205   254.8401   277.7826   306.3091   333.3940   0    4  1 
12026.359808  83.52180   -3.6739  193.3110   46.8746   255.0472   277.8751   306.2904   333.8011   0    4  1 
12026.494026  83.99340   -3.6517  192.6400   46.9813   255.0531   278.0381   306.0672   333.8667   0    4  1 
12026.628244  83.99340   -3.6517  192.6400   46.9813   254.9613   278.4390   306.5357   333.9009   0    4  1 
12026.762462  83.99340   -3.6517  192.6400   46.9813   255.3504   278.1475   306.4683   333.8723   0    4  1 
12026.896680  84.33480   -3.6566  192.1470   47.0352   255.0886   278.1432   305.8733   334.2572   0    4  1 
12027.030898  84.33480   -3.6566  192.1470   47.0352   255.3364   277.8109   306.5998   333.4553   0    4  1 
12027.165116  84.71565   -3.6667  191.5950   47.0881   255.2303   278.2308   306.3878   333.7598   0    4  1 
12027.299334  84.71565   -3.6667  191.5950   47.0881   254.8909   277.7432   306.5477   333.7584   0    4  1 
12027.433552  84.71565   -3.6667  191.5950   47.0881   255.0892   277.7323   305.7280   333.7608   0    4  1 
12027.567770  85.04520   -3.6762  191.1160   47.1308   254.5571   278.0364   305.8152   333.6220   0    4  1 
12027.701988  85.27110   -3.6842  190.7870   47.1574   254.9280   277.8175   305.7215   333.7794   0    4  1 
12027.836206  85.27110   -3.6842  190.7870   47.1574   254.4747   277.5540   305.5573   333.4120   0    4  1 
12027.970424  85.60080   -3.6957  190.3060   47.1947   254.8328   277.5282   306.0728   333.6723   0    4  1 
12028.104642  85.82760   -3.7035  189.9750   47.2191   255.1972   277.4324   305.7410   333.5948   0    4  1 
12028.238860  85.82760   -3.7035  189.9750   47.2191   254.7896   277.4060   306.0090   333.4441   0    4  1 
12028.373078  86.30610   -3.7173  189.2760   47.2701   254.6083   277.8511   305.5800   333.9381   0    4  1 
12028.507296  86.30610   -3.7173  189.2760   47.2701   254.8113   277.4742   306.0097   333.1128   0    4  0 
12028.641514  86.30610   -3.7173  189.2760   47.2701   254.9887   277.1224   305.7573   333.0917   0    4  0 
12028.775732  86.85960   -3.7254  188.4670   47.3312   254.7239   277.2429   305.3440   333.4511   0    4  0 
12028.909950  86.85960   -3.7254  188.4670   47.3312   255.0672   277.3041   305.6778   333.1948   0    4  0 
12029.044168  86.85960   -3.7254  188.4670   47.3312   254.6147   277.3854   305.4739   332.9482   0    4  0 
12029.178386  87.03270   -3.7742  188.2060   47.3030   254.7951   277.4386   305.5158   333.4751   0    4  0 
12029.312604  87.10935   -3.8183  188.0870   47.2680   254.3733   277.6718   304.8943   333.7752   0    4  0 
12029.446822  87.10935   -3.8183  188.0870   47.2680   254.5619   277.5052   305.7105   333.4455   0    4  0 
12029.581040  87.30330   -3.7901  187.8090   47.3178   254.8066   278.0142   305.0674   333.8849   0    4  0 
12029.715258  87.40305   -3.7740  187.6670   47.3446   254.6686   277.3534   305.6899   333.7752   0    4  0 
12029.849476  87.40305   -3.7740  187.6670   47.3446   254.6342   277.3308   305.4425   333.8153   0    4  0 
12029.983694  87.42000   -3.7690  187.6440   47.3514   255.1355   278.1313   305.7881   334.0606   0    4  0 
12030.117912  87.42000   -3.7690  187.6440   47.3514   254.9278   277.5027   306.1668   333.5705   0    4  0 
12030.252130  87.42660   -3.7593  187.6370   47.3617   255.3943   277.6986   306.0357   333.9057   0    5  1 
12030.386348  87.43290   -3.7490  187.6310   47.3725   255.0450   277.5419   305.9776   333.8233   0    5  1 
12030.520566  87.43290   -3.7490  187.6310   47.3725   255.4457   277.6193   306.0928   333.7097   0    5  1 
12030.654784  87.43755   -3.7482  187.6250   47.3737   255.0954   277.7343   306.0456   333.9547   0    5  1 
12030.789002  87.44325   -3.7430  187.6190   47.3794   254.6699   277.2457   305.8118   333.3032   0    5  1 
12030.923220  87.44325   -3.7430  187.6190   47.3794   254.7929   278.1158   305.5132   333.2200   0    5  1 
12031.057438  87.44670   -3.7403  187.6160   47.3823   254.5114   277.6153   305.8180   333.2221   0    5  1 
12031.191656  87.44970   -3.7383  187.6130   47.3846   255.3534   277.5977   305.9817   333.5997   0    5  1 
12031.325874  87.44970   -3.7383  187.6130   47.3846   254.4469   277.5789   305.8508   333.5631   0    5  1 
12031.460092  87.45315   -3.7375  187.6100   47.3856   254.7323   277.6223   306.1459   333.7621   0    5  1 
12031.594310  87.45405   -3.7382  187.6100   47.3849   254.7185   277.7368   305.5816   333.5287   0    5  1 
12031.728528  87.45405   -3.7382  187.6100   47.3849   254.8536   277.4880   305.9437   333.5003   0    5  1 
12031.862746  87.45405   -3.7382  187.6100   47.3849   254.8691   277.3918   305.6791   333.3509   0    5  1 
12031.996964  87.35385   -3.8374  187.7440   47.2750   254.8065   277.9971   305.7548   333.4258   0    5  1 
12032.131182  87.35385   -3.8374  187.7440   47.2750   255.0458   277.6707   305.7553   333.5349   0    5  1 
12032.265400  87.27645   -3.8873  187.8500   47.2167   254.9844   277.3616   306.2303   332.8505   0    5  1 
12032.399618  87.27645   -3.8873  187.8500   47.2167   255.1531   277.6129   306.0396   333.2083   0    5  1 
12032.533836  87.27645   -3.8873  187.8500   47.2167   255.1042   277.3518   305.8525   332.1365   0    5  1 
12032.668054  86.88585   -3.9447  188.4140   47.1144   255.0844   277.3678   306.1179   333.5589   0    5  1 
12032.802272  86.76045   -3.9648  188.5940   47.0792   255.2353   277.0796   305.8222   332.4731   0    5  1 
12032.936490  86.76045   -3.9648  188.5940   47.0792   255.3331   277.0524   305.9872   332.6871   0    5  1 
12033.070708  86.76045   -3.9648  188.5940   47.0792   255.3260   277.2911   305.9530   332.6730   0    5  1 
12033.204926  86.29875   -3.9882  189.2640   46.9976   255.0267   277.5568   305.9232   333.3230   0    5  1 
12033.339144  86.29875   -3.9882  189.2640   46.9976   255.5653   277.6568   306.1731   333.2250   0    5  1 
12033.473362  86.13435   -3.9964  189.5020   46.9676   255.0091   277.7296   305.9743   333.5099   0    5  1 
12033.607580  85.74975   -4.0146  190.0580   46.8965   254.8994   277.6556   305.8388   333.4958   0    5  1 
12033.741798  85.74975   -4.0146  190.0580   46.8965   254.7184   277.7371   305.1841   333.6414   0    5  1 
12033.876016  85.74975   -4.0146  190.0580   46.8965   254.6874   278.0103   305.4186   333.8792   0    5  1 
12034.010234  85.17750   -4.0346  190.8840   46.7923   255.1037   277.7250   306.1556   333.7215   0    5  1 
12034.144452  85.17750   -4.0346  190.8840   46.7923   254.8779   277.8991   306.1176   333.7838   0    5  1 
12034.278670  84.91710   -4.0414  191.2590   46.7451   255.0442   277.8646   305.9063   333.4154   0    5  1 
12034.412888  84.91710   -4.0414  191.2590   46.7451   254.6062   277.1810   305.5560   333.5659   0    5  1 
12034.547106  84.91710   -4.0414  191.2590   46.7451   254.5807   277.5423   305.7927   333.4388   0    5  1 
12034.681324  84.44970   -4.0568  191.9300   46.6540   254.6500   278.0385   305.7147   333.7361   0    5  1 
12034.815542  84.18840   -4.0613  192.3050   46.6052   254.3338   278.0093   305.9870   333.9010   0    5  1 
12034.949760  84.18840   -4.0613  192.3050   46.6052   254.7611   277.5444   305.8042   333.5921   0    5  0 
12035.083978  83.95200   -4.0684  192.6430   46.5570   254.4168   278.3991   305.8416   333.5955   0    5  0 
12035.218196  83.95200   -4.0684  192.6430   46.5570   254.4301   277.0196   305.0953   332.6525   0    5  0 
12035.352414  83.95200   -4.0684  192.6430   46.5570   254.9083   276.8320   305.3176   332.6906   0    5  0 
12035.486632  83.61495   -4.0735  193.1250   46.4914   254.6585   277.2013   305.3998   332.9798   0    5  0 
12035.620850  83.61495   -4.0735  193.1250   46.4914   254.5344   277.0610   305.3098   332.9606   0    5  0 
12035.755068  83.42430   -4.0152  193.4140   46.5135   254.2942   277.3155   305.0423   333.2399   0    5  0 
12035.889286  83.30775   -3.9427  193.6010   46.5628   254.3995   276.7513   305.0513   333.1369   0    5  0 
12036.023504  83.30775   -3.9427  193.6010   46.5628   254.1004   277.6852   305.3180   333.4502   0    5  0 
12036.157722  83.13510   -3.7581  193.9010   46.7111   253.9710   277.7241   304.6005   333.6478   0    5  0 
12036.291940  83.04585   -3.6639  194.0570   46.7861   254.1062   277.4574   305.0466   333.5229   0    5  0 
12036.426158  83.04585   -3.6639  194.0570   46.7861   254.3804   277.5809   305.5085   333.3248   0    5  0 
12036.560376  83.02665   -3.6173  194.0990   46.8279   254.5919   277.4346   305.3651   333.1367   0    5  0 
12036.694594  83.03085   -3.5976  194.1000   46.8479   254.3039   277.0103   305.4305   332.9410   0    5  0 
12036.828812  83.03085   -3.5976  194.1000   46.8479   254.6411   277.3580   305.6671   333.4170   0    5  0 
12036.963030  83.02680   -3.5837  194.1110   46.8606   254.6697   276.8645   305.5573   333.0994   0    5  0 
12037.097248  83.02695   -3.5709  194.1160   46.8730   254.1711   276.6981   305.3099   332.7866   0    6  1 
12037.231466  83.02695   -3.5709  194.1160   46.8730   254.2102   276.5762   305.4022   332.5416   0    6  1 
12037.365684  83.02605   -3.5677  194.1190   46.8758   254.2577   276.9884   305.5790   332.8425   0    6  1 
12037.499902  83.02665   -3.5595  194.1220   46.8838   254.4889   276.7545   305.3803   333.1472   0    6  1 
12037.634120  83.02665   -3.5595  194.1220   46.8838   254.6858   277.3172   305.4720   333.1153   0    6  1 
12037.768338  83.02500   -3.5574  194.1260   46.8854   255.1308   276.8443   305.6618   332.8087   0    6  1 
12037.902556  83.02545   -3.5554  194.1270   46.8873   254.5350   277.3411   305.6505   332.6836   0    6  1 
12038.036774  83.02545   -3.5554  194.1270   46.8873   254.5437   277.1795   305.3458   333.1253   0    6  1 
12038.170992  83.02620   -3.5538  194.1280   46.8888   254.5443   276.9756   305.6256   333.2785   0    6  1 
12038.305210  83.02800   -3.5529  194.1280   46.8897   254.8948   277.1990   306.3818   333.1629   0    6  1 
12038.439428  83.02800   -3.5529  194.1280   46.8897   254.6906   277.2061   305.5776   332.7880   0    6  1 
12038.573646  83.02800   -3.5529  194.1280   46.8897   254.1603   277.3443   305.3549   333.2809   0    6  1 
12038.707864  83.02950   -3.5525  194.1270   46.8902   254.5589   277.0616   305.5602   333.1098   0    6  1 
12038.842082  83.02950   -3.5525  194.1270   46.8902   254.8075   277.2983   305.3554   332.9564   0    6  1 
12038.976300  83.09925   -3.4808  194.0500   46.9739   254.7985   277.0071   305.7436   332.9982   0    6  1 
12039.110518  83.09925   -3.4808  194.0500   46.9739   254.7512   276.6939   304.9665   332.6136   0    6  1 
12039.244736  83.09925   -3.4808  194.0500   46.9739   254.5553   276.3833   305.4003   332.8656   0    6  1 
12039.378954  83.16015   -3.4145  193.9820   47.0507   254.5111   276.5372   305.3594   333.0364   0    6  1 
12039.513172  83.52330   -3.3029  193.4920   47.2292   254.9604   276.6955   306.1335   333.0548   0    6  1 
12039.647390  83.52330   -3.3029  193.4920   47.2292   254.7322   276.8987   305.7684   332.2531   0    6  1 
12039.781608  83.52330   -3.3029  193.4920   47.2292   255.1375   276.7304   305.6203   332.6285   0    6  1 
12039.915826  83.92305   -3.2798  192.9210   47.3250   254.8539   276.9598   306.1355   332.8117   0    6  1 
12040.050044  83.92305   -3.2798  192.9210   47.3250   255.0265   277.5714   305.8616   333.2993   0    6  1 
12040.184262  83.92305   -3.2798  192.9210   47.3250   255.2171   277.5984   306.0386   333.4696   0    6  1 
12040.318480  84.41175   -3.2844  192.2110   47.4057   254.9736   277.6698   305.8982   334.0127   0    6  1 
12040.452698  84.41175   -3.2844  192.2110   47.4057   254.8329   277.7092   306.1208   334.2023   0    6  1 
12040.586916  84.71355   -3.2947  191.7700   47.4458   255.2390   277.7333   306.7036   333.6062   0    6  1 
12040.721134  84.71355   -3.2947  191.7700   47.4458   255.0858   277.8524   306.0549   333.6302   0    6  1 
12040.855352  84.71355   -3.2947  191.7700   47.4458   254.9141   277.2463   305.8888   332.9513   0    6  1 
12040.989570  84.96555   -3.3029  191.4010   47.4783   254.6244   277.0512   305.7728   332.7721   0    6  1 
12041.123788  84.96555   -3.3029  191.4010   47.4783   255.0757   277.4561   305.5976   332.3358   0    6  1 
12041.258006  85.26465   -3.3111  190.9630   47.5169   254.2360   277.0470   304.7233   333.1667   0    6  1 
12041.392224  85.51590   -3.3196  190.5940   47.5463   254.3550   276.8550   304.4530   332.9299   0    6  1 
12041.526442  85.51590   -3.3196  190.5940   47.5463   254.2959   276.5454   305.1791   332.4185   0    6  1 
12041.660660  85.74165   -3.3288  190.2620   47.5701   254.5961   277.0482   304.7056   332.4693   0    6  1 
12041.794878  86.29185   -3.3439  189.4530   47.6311   254.2649   276.7556   304.7687   333.1105   0    6  0 
12041.929096  86.29185   -3.3439  189.4530   47.6311   254.5109   276.9204   304.8582   332.7752   0    6  0 
12042.063314  86.51670   -3.3490  189.1220   47.6554   254.2359   277.2442   305.0072   332.6888   0    6  0 
12042.197532  86.51670   -3.3490  189.1220   47.6554   254.0080   277.1031   305.0811   333.2343   0    6  0 
12042.331750  86.51670   -3.3490  189.1220   47.6554   254.2951   276.7092   304.5248   332.7157   0    6  0 
12042.465968  86.76675   -3.3515  188.7540   47.6844   253.8197   276.8434   304.4867   332.4761   0    6  0 
12042.600186  86.89140   -3.3782  188.5660   47.6731   254.5289   277.0595   304.7584   332.9603   0    6  0 
12042.734404  86.89140   -3.3782  188.5660   47.6731   254.1810   276.8059   304.5786   333.0337   0    6  0 
12042.868622  87.16800   -3.4050  188.1550   47.6790   254.1749   276.2388   304.8820   332.3613   0    6  0 
12043.002840  87.31125   -3.3854  187.9480   47.7148   254.1579   276.7752   304.9331   332.5715   0    6  0 
12043.137058  87.31125   -3.3854  187.9480   47.7148   253.9950   276.7998   304.8141   332.6723   0    6  0 
12043.271276  87.38400   -3.3936  187.8400   47.7147   254.3787   276.7065   304.5272   332.3883   0    6  0 
12043.405494  87.43215   -3.3875  187.7710   47.7260   254.2823   276.3183   305.3148   332.6357   0    6  0 
12043.539712  87.43215   -3.3875  187.7710   47.7260   253.9311   276.4462   304.7972   332.3842   0    6  0 
12043.673930  87.42960   -3.3851  187.7760   47.7281   254.1026   276.3595   305.0359   332.7316   0    7  1 
12043.808148  87.43620   -3.3805  187.7690   47.7332   254.3283   276.4496   304.7797   332.0417   0    7  1 
12043.942366  87.43620   -3.3805  187.7690   47.7332   254.2975   276.6734   304.5972   331.7597   0    7  1 
12044.076584  87.44040   -3.3745  187.7650   47.7396   254.0811   276.8240   304.7285   332.9505   0    7  1 
12044.210802  87.44100   -3.3749  187.7650   47.7392   254.1766   276.6696   304.4861   332.5483   0    7  1 
12044.345020  87.44100   -3.3749  187.7650   47.7392   254.3492   276.8135   304.6851   333.1926   0    7  1 
12044.479238  87.44790   -3.3715  187.7570   47.7432   254.4088   276.6532   304.8177   332.2589   0    7  1 
12044.613456  87.44940   -3.3713  187.7560   47.7435   254.3977   276.7740   305.2382   332.4322   0    7  1 
12044.747674  87.44940   -3.3713  187.7560   47.7435   254.4074   276.9434   305.1047   332.1543   0    7  1 
12044.881892  87.45240   -3.3709  187.7540   47.7440   254.0687   276.5581   305.1404   332.6686   0    7  1 
12045.016110  87.45600   -3.3720  187.7500   47.7432   254.4783   276.8002   304.8816   332.4415   0    7  1 
12045.150328  87.45600   -3.3720  187.7500   47.7432   254.0439   276.8335   304.6449   333.0822   0    7  1 
12045.284546  87.45600   -3.3720  187.7500   47.7432   253.9190   277.2467   304.9737   332.7138   0    7  1 
12045.418764  87.38520   -3.4467  187.8450   47.6608   254.6642   276.5734   305.2769   333.0440   0    7  1 
12045.552982  87.38520   -3.4467  187.8450   47.6608   253.8464   276.8365   305.1503   332.5681   0    7  1 
12045.687200  87.32520   -3.4952  187.9260   47.6058   254.5850   276.8089   305.1088   332.5151   0    7  1 
12045.821418  87.32520   -3.4952  187.9260   47.6058   254.5965   276.9864   304.9814   333.1074   0    7  1 
12045.955636  87.32520   -3.4952  187.9260   47.6058   254.1992   277.5590   305.1430   332.8378   0    7  1 
12046.089854  87.07560   -3.5602  188.2850   47.5123   254.5841   277.3706   305.0436   332.9059   0    7  1 
12046.224072  86.83350   -3.5955  188.6360   47.4481   254.8233   277.3975   305.7891   333.2971   0    7  1 
12046.358290  86.83350   -3.5955  188.6360   47.4481   254.5341   277.0369   305.3799   333.3626   0    7  1 
12046.492508  86.83350   -3.5955  188.6360   47.4481   254.2416   277.1470   305.3779   333.1231   0    7  1 
12046.626726  86.30880   -3.6314  189.4010   47.3454   254.3301   277.1458   305.0923   333.3608   0    7  1 
12046.760944  86.30880   -3.6314  189.4010   47.3454   254.6341   277.1622   305.2353   333.0801   0    7  1 
12046.895162  86.14680   -3.6408  189.6370   47.3143   254.9899   277.4005   305.2882   333.0647   0    7  1 
12047.029380  86.14680   -3.6408  189.6370   47.3143   254.8318   277.2379   305.0029   333.1758   0    7  1 
12047.163598  86.14680   -3.6408  189.6370   47.3143   254.8890   277.2971   305.5535   333.4957   0    7  1 
12047.297816  85.50765   -3.6623  190.5680   47.2019   255.0656   277.5216   305.3735   333.0491   0    7  1 
12047.432034  85.35090   -3.6712  190.7950   47.1696   254.8455   277.4750   305.7088   333.7596   0    7  1 
12047.566252  85.35090   -3.6712  190.7950   47.1696   255.0434   277.3985   305.4249   333.2982   0    7  1 
12047.700470  85.35090   -3.6712  190.7950   47.1696   255.1260   277.6607   305.9773   333.3111   0    7  1 
12047.834688  84.70830   -3.6911  191.7260   47.0484   255.0664   277.6376   306.0690   334.0150   0    7  1 
12047.968906  84.70830   -3.6911  191.7260   47.0484   254.7983   277.5887   305.3473   333.3644   0    7  1 
12048.103124  84.70830   -3.6911  191.7260   47.0484   254.6068   277.4574   305.9989   332.9574   0    7  1 
12048.237342  84.55155   -3.6983  191.9520   47.0153   254.9506   276.9698   305.4436   333.7143   0    7  1 
12048.371560  84.55155   -3.6983  191.9520   47.0153   254.6736   276.6355   305.6303   332.8747   0    7  1 
12048.505778  84.05670   -3.7129  192.6650   46.9157   254.4304   276.8473   305.5246   333.2903   0    7  0 
12048.639996  83.71950   -3.7202  193.1500   46.8478   254.1724   276.9374   305.2078   332.9983   0    7  0 
12048.774214  83.71950   -3.7202  193.1500   46.8478   254.7320   276.8311   305.0254   333.5103   0    7  0 
12048.908432  83.71950   -3.7202  193.1500   46.8478   254.4856   277.1164   305.3377   332.7997   0    7  0 
12049.042650  83.56515   -3.7225  193.3720   46.8170   254.3379   277.1320   305.3133   333.3085   0    7  0 
12049.176868  83.56515   -3.7225  193.3720   46.8170   254.4769   277.1170   305.0024   333.5993   0    7  0 
12049.311086  83.33895   -3.6404  193.7210   46.8550   254.3577   276.7623   305.3991   333.5595   0    7  0 
12049.445304  83.19405   -3.4863  193.9740   46.9784   254.0773   277.2620   304.8753   332.9605   0    7  0 
12049.579522  83.19405   -3.4863  193.9740   46.9784   254.5259   276.8602   305.2371   332.6591   0    7  0 
12049.713740  83.06895   -3.3527  194.1940   47.0850   254.3721   276.4433   305.1369   333.1646   0    7  0 
12049.847958  83.03115   -3.2863  194.2690   47.1425   253.8421   276.6839   304.4589   332.7726   0    7  0 
12049.982176  83.03115   -3.2863  194.2690   47.1425   254.2392   276.3172   305.1526   332.8945   0    7  0 
12050.116394  83.02470   -3.2554  194.2880   47.1715   254.3764   276.8884   304.8420   333.2821   0    7  0 
12050.250612  83.03190   -3.2321  194.2860   47.1956   253.9477   276.3522   304.3128   333.1061   0    7  0 
12050.384830  83.03190   -3.2321  194.2860   47.1956   253.8692   277.1861   304.3191   333.0057   0    7  0 
12050.519048  83.02530   -3.2151  194.3020   47.2107   253.9423   276.9583   304.6522   333.3052   0    7  0 
12050.653266  83.02545   -3.2082  194.3050   47.2174   254.0306   276.8215   304.7385   332.9307   0    8  1 
12050.787484  83.02545   -3.2082  194.3050   47.2174   254.4079   276.9406   304.8451   333.0444   0    8  1 
12050.921702  83.02425   -3.1975  194.3110   47.2275   254.1073   277.0816   304.3378   333.1309   0    8  1 
12051.055920  83.02470   -3.1943  194.3120   47.2306   253.8114   276.6807   304.6248   332.7117   0    8  1 
12051.190138  83.02470   -3.1943  194.3120   47.2306   254.1911   276.5264   304.7825   332.7489   0    8  1 
12051.324356  83.02455   -3.1902  194.3150   47.2344   254.2196   276.8656   305.0422   332.9471   0    8  1 
12051.458574  83.02515   -3.1890  194.3160   47.2354   254.1596   277.3659   304.8267   333.2252   0    8  1 
12051.592792  83.02515   -3.1890  194.3160   47.2354   254.1383   277.0708   304.4981   333.3793   0    8  1 
12051.727010  83.02650   -3.1866  194.3170   47.2378   254.0077   276.7980   304.7219   333.2727   0    8  1 
12051.861228  83.02860   -3.1841  194.3160   47.2404   254.0197   277.1390   304.7777   332.9756   0    8  1 
12051.995446  83.02860   -3.1841  194.3160   47.2404   254.2943   277.0208   304.5167   332.6691   0    8  1 
12052.129664  83.02860   -3.1841  194.3160   47.2404   254.4455   277.0949   304.9937   332.8718   0    8  1 
12052.263882  83.05350   -3.1651  194.2880   47.2637   254.2524   276.9102   305.0477   332.6835   0    8  1 
12052.398100  83.05350   -3.1651  194.2880   47.2637   253.9339   276.8342   304.9018   332.1839   0    8  1 
12052.532318  83.05350   -3.1651  194.2880   47.2637   254.3047   276.6479   304.8731   332.6553   0    8  1 
12052.666536  83.13015   -3.0868  194.2010   47.3555   254.1377   276.2021   304.4493   332.7526   0    8  1 
12052.800754  83.13015   -3.0868  194.2010   47.3555   253.9273   276.2199   304.4989   332.3941   0    8  1 
12052.934972  83.33550   -2.9481  193.9450   47.5315   254.2595   277.1525   304.6147   333.0878   0    8  1 
12053.069190  83.33550   -2.9481  193.9450   47.5315   255.0921   276.6773   304.6778   333.0346   0    8  1 
12053.203408  83.33550   -2.9481  193.9450   47.5315   254.5418   277.2650   306.0508   333.0119   0    8  1 
12053.337626  83.53020   -2.9239  193.6700   47.5923   254.3948   277.0350   305.6658   333.0791   0    8  1 
12053.471844  84.00090   -2.9026  192.9910   47.7001   254.8786   277.3441   305.6470   333.6222   0    8  1 
12053.606062  84.00090   -2.9026  192.9910   47.7001   255.1485   277.2822   306.2086   333.7360   0    8  1 
12053.740280  84.00090   -2.9026  192.9910   47.7001   255.3037   277.1014   305.8744   333.8115   0    8  1 
12053.874498  84.25980   -2.9064  192.6120   47.7423   255.6909   277.5406   306.1116   334.5741   0    8  1 
12054.008716  84.25980   -2.9064  192.6120   47.7423   255.6614   277.4161   306.2611   333.9692   0    8  1 
12054.142934  84.71235   -2.9145  191.9480   47.8115   255.7846   277.8513   306.2987   334.4169   0    8  1 
12054.277152  84.71235   -2.9145  191.9480   47.8115   255.5430   277.9403   306.2750   334.9307   0    8  1 
12054.411370  84.71235   -2.9145  191.9480   47.8115   255.9924   278.1315   306.1261   334.3580   0    8  1 
12054.545588  85.04085   -2.9237  191.4640   47.8559   254.8007   277.1813   305.5561   333.3998   0    8  1 
12054.679806  85.26375   -2.9304  191.1350   47.8844   255.1302   276.8703   305.2787   333.2041   0    8  1 
12054.814024  85.26375   -2.9304  191.1350   47.8844   254.5318   276.7038   305.5440   333.4991   0    8  1 
12054.948242  85.51095   -2.9406  190.7690   47.9121   254.5366   276.6703   304.4254   332.1593   0    8  1 
12055.082460  85.66035   -2.9456  190.5480   47.9294   254.9249   276.1806   304.4813   332.8533   0    8  1 
12055.216678  85.66035   -2.9456  190.5480   47.9294   254.2180   276.2810   304.5475   332.6303   0    8  0 
12055.350896  86.28300   -2.9628  189.6260   48.0003   254.4083   276.5986   304.4968   332.5194   0    8  0 
12055.485114  86.28300   -2.9628  189.6260   48.0003   254.2262   276.2531   304.9441   332.2593   0    8  0 
12055.619332  86.28300   -2.9628  189.6260   48.0003   254.2227   276.3638   304.2014   332.1234   0    8  0 
12055.753550  86.74620   -2.9773  188.9380   48.0463   254.2005   276.2500   304.9150   332.1221   0    8  0 
12055.887768  86.84940   -3.0231  188.7770   48.0137   253.8911   276.1651   304.6451   331.3298   0    8  0 
12056.021986  86.84940   -3.0231  188.7770   48.0137   253.9422   275.5713   304.5668   331.8265   0    8  0 
12056.156204  86.95680   -3.0457  188.6140   48.0044   254.4539   276.5969   304.9508   332.5253   0    8  0 
12056.290422  87.08865   -3.0289  188.4220   48.0369   254.2847   276.8504   304.6358   332.4190   0    8  0 
12056.424640  87.08865   -3.0289  188.4220   48.0369   254.6940   276.1590   305.1247   331.3979   0    8  0 
12056.558858  87.29460   -3.0130  188.1200   48.0767   254.4821   276.0276   304.5433   332.4473   0    8  0 
12056.693076  87.37185   -3.0249  188.0040   48.0736   254.2917   276.2077   304.6761   331.8311   0    8  0 
12056.827294  87.37185   -3.0249  188.0040   48.0736   254.3836   275.8648   304.8000   331.8528   0    8  0 
12056.961512  87.42960   -3.0138  187.9210   48.0911   254.5520   276.2300   304.4739   331.9774   0    8  0 
12057.095730  87.42570   -3.0110  187.9290   48.0933   254.2916   276.2194   304.6974   331.9838   0    9  1 
12057.229948  87.42570   -3.0110  187.9290   48.0933   254.3810   276.0418   305.1905   331.9298   0    9  1 
12057.364166  87.43125   -3.0131  187.9210   48.0918   254.4902   276.4815   304.7526   332.5912   0    9  1 
12057.498384  87.43785   -3.0058  187.9140   48.0997   254.8268   276.3796   305.0697   332.3539   0    9  1 
12057.632602  87.43785   -3.0058  187.9140   48.0997   254.3289   275.9705   304.7880   332.3077   0    9  1 
12057.766820  87.44220   -3.0064  187.9090   48.0995   254.3947   276.2783   304.5713   332.2485   0    9  1 
12057.901038  87.44460   -3.0044  187.9070   48.1016   254.2864   276.3645   304.8280   331.7555   0    9  1 
12058.035256  87.44460   -3.0044  187.9070   48.1016   254.5062   276.0158   304.7824   331.4774   0    9  1 
12058.169474  87.44790   -3.0057  187.9030   48.1006   254.0400   276.1444   304.3227   331.8943   0    9  1 
12058.303692  87.45105   -3.0034  187.9010   48.1031   254.1217   275.9439   304.9411   331.4435   0    9  1 
12058.437910  87.45105   -3.0034  187.9010   48.1031   253.9032   275.8665   304.5289   331.8490   0    9  1 
12058.572128  87.45240   -3.0027  187.9010   48.1038   253.9433   275.9245   304.4900   331.1396   0    9  1 
12058.706346  87.45240   -3.0027  187.9010   48.1038   254.0827   275.5626   304.5268   331.6134   0    9  1 
12058.840564  87.41160   -3.0487  187.9560   48.0533   254.3974   275.7325   304.0457   331.2851   0    9  1 
12058.974782  87.41160   -3.0487  187.9560   48.0533   254.1264   276.1251   304.1385   331.3414   0    9  1 
12059.109000  87.41160   -3.0487  187.9560   48.0533   254.1092   276.0900   304.2807   331.7100   0    9  1 
12059.243218  87.20700   -3.1892  188.2380   47.8899   254.1033   275.9691   304.4500   331.3333   0    9  1 
12059.377436  87.20700   -3.1892  188.2380   47.8899   254.2236   276.3955   304.3479   332.7925   0    9  1 
12059.511654  87.07800   -3.2079  188.4270   47.8559   253.7781   276.3162   304.0050   332.1904   0    9  1 
12059.645872  86.89830   -3.2306  188.6900   47.8115   254.2311   275.9083   304.5704   331.8078   0    9  1 
12059.780090  86.89830   -3.2306  188.6900   47.8115   253.8467   276.1575   304.2247   331.8780   0    9  1 
12059.914308  86.89830   -3.2306  188.6900   47.8115   254.0347   275.9351   304.3311   332.0442   0    9  1 
12060.048526  86.49675   -3.2698  189.2780   47.7215   254.3606   275.9327   304.5570   331.9316   0    9  1 
12060.182744  86.49675   -3.2698  189.2780   47.7215   254.3346   276.1483   304.4796   332.1978   0    9  1 
12060.316962  86.23080   -3.2851  189.6680   47.6707   254.4904   276.0443   304.3239   332.2006   0    9  1 
12060.451180  86.23080   -3.2851  189.6680   47.6707   254.3133   276.1135   304.2476   332.0764   0    9  1 
12060.585398  86.23080   -3.2851  189.6680   47.6707   254.6148   276.7235   304.9363   332.6994   0    9  1 
12060.719616  85.59090   -3.3147  190.6050   47.5499   254.6702   276.3515   305.6374   332.4742   0    9  1 
12060.853834  85.51440   -3.3167  190.7170   47.5365   255.1293   277.0745   305.4231   332.8859   0    9  1 
12060.988052  85.51440   -3.3167  190.7170   47.5365   255.2696   276.5427   305.8949   333.1330   0    9  1 
12061.122270  85.51440   -3.3167  190.7170   47.5365   254.9992   276.9797   305.5321   333.5332   0    9  1 
12061.256488  84.94980   -3.3405  191.5400   47.4247   254.7963   276.6281   305.6955   332.7609   0    9  1 
12061.390706  84.94980   -3.3405  191.5400   47.4247   254.5604   277.0765   305.1810   333.1969   0    9  1 
12061.524924  84.94980   -3.3405  191.5400   47.4247   254.7876   276.5352   305.3414   333.2584   0    9  1 
12061.659142  84.64215   -3.3531  191.9870   47.3616   254.5671   276.5507   304.9146   332.7249   0    9  1 
12061.793360  84.64215   -3.3531  191.9870   47.3616   254.5139   276.1385   304.8775   332.6561   0    9  0 
12061.927578  84.22800   -3.3664  192.5880   47.2773   253.9975   276.2535   304.8897   331.7806   0    9  0 
12062.061796  84.22800   -3.3664  192.5880   47.2773   253.6437   275.6566   304.4262   331.5440   0    9  0 
12062.196014  84.22800   -3.3664  192.5880   47.2773   254.1705   275.7109   304.3787   331.5737   0    9  0 
12062.330232  83.91765   -3.3767  193.0370   47.2117   253.8401   275.8536   304.4197   331.7578   0    9  0 
12062.464450  83.66160   -3.3788  193.4080   47.1624   254.0799   275.2923   304.5421   331.8244   0    9  0 
12062.598668  83.66160   -3.3788  193.4080   47.1624   254.5182   275.8395   304.8232   331.7909   0    9  0 
12062.732886  83.38770   -3.2875  193.8310   47.2002   254.4267   275.9263   304.6031   331.5467   0    9  0 
12062.867104  83.22405   -3.1336  194.1130   47.3195   253.7517   275.6873   304.8881   331.5724   0    9  0 
12063.001322  83.22405   -3.1336  194.1130   47.3195   254.2889   275.7082   304.9852   332.1157   0    9  0 
12063.135540  83.15235   -3.0533  194.2410   47.3842   254.2467   275.7322   304.8692   332.0481   0    9  0 
12063.269758  83.05140   -2.9450  194.4210   47.4702   254.3004   275.8906   304.8501   331.6054   0    9  0 
12063.403976  83.05140   -2.9450  194.4210   47.4702   254.2690   275.1911   304.7728   331.4776   0    9  0 
12063.538194  83.02755   -2.8811  194.4760   47.5279   254.2061   275.5233   304.7571   331.9238   0    9  0 
12063.672412  83.02905   -2.8609  194.4810   47.5478   254.0338   275.5301   304.3072   331.7316   0    9  0 
12063.806630  83.02905   -2.8609  194.4810   47.5478   253.9604   275.7915   304.1665   332.1263   0    9  0 
12063.940848  83.02515   -2.8535  194.4900   47.5542   254.4163   275.7183   304.0768   332.0123   0    9  0 
12064.075066  83.02470   -2.8451  194.4940   47.5622   253.8141   275.9979   304.2012   332.1891   0   10  1 
12064.209284  83.02470   -2.8451  194.4940   47.5622   254.1320   275.6792   304.0857   332.3755   0   10  1 
12064.343502  83.02470   -2.8336  194.4990   47.5732   253.4776   276.0337   304.3124   332.4353   0   10  1 
12064.477720  83.02395   -2.8250  194.5040   47.5813   253.4130   275.8624   303.8585   332.0812   0   10  1 
12064.611938  83.02395   -2.8250  194.5040   47.5813   253.4710   275.8629   304.0190   331.6597   0   10  1 
12064.746156  83.02320   -2.8225  194.5070   47.5835   253.9610   275.6792   303.8421   331.8808   0   10  1 
12064.880374  83.02395   -2.8198  194.5080   47.5861   254.0924   276.1018   303.9762   331.9590   0   10  1 
12065.014592  83.02395   -2.8198  194.5080   47.5861   253.7971   275.9097   303.8779   331.6707   0   10  1 
12065.148810  83.02545   -2.8168  194.5090   47.5890   253.7250   275.9491   303.9253   332.1521   0   10  1 
12065.283028  83.02665   -2.8158  194.5090   47.5900   252.9918   275.8771   304.2844   332.0308   0   10  1 
12065.417246  83.02665   -2.8158  194.5090   47.5900   254.0612   276.1409   304.1076   331.8909   0   10  1 
12065.551464  83.02800   -2.8163  194.5080   47.5897   253.9290   276.1129   304.0531   331.6773   0   10  1 
12065.685682  83.05275   -2.7933  194.4800   47.6170   253.8691   275.8464   304.2971   331.6349   0   10  1 
12065.819900  83.05275   -2.7933  194.4800   47.6170   253.5860   276.1226   304.2484   331.9338   0   10  1 
12065.954118  83.05275   -2.7933  194.4800   47.6170   253.8522   275.9628   304.1176   331.9958   0   10  1 
12066.088336  83.33430   -2.5807  194.1350   47.8810   253.9411   275.7326   304.4004   332.3315   0   10  1 
12066.222554  83.33430   -2.5807  194.1350   47.8810   253.8711   275.7802   304.4050   332.0533   0   10  1 
12066.356772  83.42985   -2.5628  194.0010   47.9171   254.0438   276.2908   304.5652   332.3643   0   10  1 
12066.490990  83.42985   -2.5628  194.0010   47.9171   254.0770   276.1744   304.6514   332.2199   0   10  1 
12066.625208  83.42985   -2.5628  194.0010   47.9171   254.1947   276.4466   304.8499   332.4517   0   10  1 
12066.759426  83.93580   -2.5303  193.2700   48.0444   254.2284   276.6382   304.8882   332.8694   0   10  1 
12066.893644  84.08730   -2.5284  193.0480   48.0738   254.3936   276.1676   305.3097   332.4664   0   10  1 
12067.027862  84.08730   -2.5284  193.0480   48.0738   254.7376   276.8319   305.2193   333.1967   0   10  1 
12067.162080  84.08730   -2.5284  193.0480   48.0738   254.8964   277.1045   305.4962   333.6661   0   10  1 
12067.296298  84.56895   -2.5372  192.3370   48.1500   255.5043   276.9067   306.0548   333.5854   0   10  1 
12067.430516  84.56895   -2.5372  192.3370   48.1500   255.8567   278.1575   306.7898   335.0254   0   10  1 
12067.564734  84.79275   -2.5444  192.0050   48.1807   256.2945   278.2809   307.0749   334.8769   0   10  1 
12067.698952  84.79275   -2.5444  192.0050   48.1807   256.3351   278.9034   306.9965   335.2886   0   10  1 
12067.833170  84.79275   -2.5444  192.0050   48.1807   256.0032   278.6073   306.8898   335.0163   0   10  1 
12067.967388  85.33785   -2.5617  191.1950   48.2516   255.7021   277.6743   306.1908   333.9761   0   10  1 
12068.101606  85.48665   -2.5693  190.9730   48.2671   254.9802   277.4576   305.6702   333.7306   0   10  1 
12068.235824  85.48665   -2.5693  190.9730   48.2671   253.6237   276.5148   303.9348   332.5535   0   10  1 
12068.370042  85.48665   -2.5693  190.9730   48.2671   253.9673   276.6365   304.1895   332.9816   0   10  1 
12068.504260  85.80600   -2.5799  190.4970   48.3045   253.8544   276.6931   304.0460   332.9170   0   10  1 
12068.638478  85.80600   -2.5799  190.4970   48.3045   253.8761   276.8288   304.0859   332.7035   0   10  1 
12068.772696  86.27565   -2.5987  189.7950   48.3526   253.8228   276.4278   303.7036   332.4862   0   10  1 
12068.906914  86.27565   -2.5987  189.7950   48.3526   253.5977   276.4473   303.7276   332.3718   0   10  0 
12069.041132  86.27565   -2.5987  189.7950   48.3526   253.5904   276.2839   303.6371   332.5188   0   10  0 
12069.175350  86.71830   -2.6132  189.1330   48.3970   254.1698   276.3561   304.0359   332.2905   0   10  0 
12069.309568  86.71830   -2.6132  189.1330   48.3970   253.6810   275.6971   303.8682   332.1665   0   10  0 
12069.443786  86.71830   -2.6132  189.1330   48.3970   254.1388   275.7451   304.4268   331.8045   0   10  0 
12069.578004  86.98380   -2.6677  188.7270   48.3762   254.0819   275.8096   304.0717   331.9362   0   10  0 
12069.712222  87.08745   -2.7164  188.5640   48.3404   253.8314   275.8335   304.1284   332.0919   0   10  0 
12069.846440  87.08745   -2.7164  188.5640   48.3404   253.8891   275.8945   303.9077   332.1361   0   10  0 
12069.980658  87.26655   -2.6755  188.3050   48.4023   254.0670   276.1510   303.4910   332.6381   0   10  0 
12070.114876  87.37455   -2.6603  188.1470   48.4300   253.9122   276.0103   304.1340   331.9994   0   10  0 
12070.249094  87.37455   -2.6603  188.1470   48.4300   253.9012   276.1703   303.7072   332.0185   0   10  0 
12070.383312  87.40560   -2.6674  188.1000   48.4264   253.4329   276.3832   304.0513   332.2641   0   10  0 
12070.517530  87.42330   -2.6564  188.0770   48.4392   253.9067   276.1888   303.7766   332.6951   0   10  0 
12070.651748  87.42330   -2.6564  188.0770   48.4392   253.8115   276.1286   303.5806   332.1886   0   10  0 
12070.785966  87.42930   -2.6475  188.0710   48.4487   253.8318   276.9335   303.7901   332.4199   0   11  1 
12070.920184  87.43740   -2.6418  188.0610   48.4552   253.4869   276.3578   303.9973   332.3037   0   11  1 
12071.054402  87.43740   -2.6418  188.0610   48.4552   253.6202   276.3744   304.1968   332.4643   0   11  1 
12071.188620  87.44070   -2.6372  188.0580   48.4600   253.3182   276.3598   303.9510   332.3406   0   11  1 
12071.322838  87.44490   -2.6369  188.0530   48.4607   254.1413   276.1484   303.5583   332.3388   0   11  1 
12071.457056  87.44490   -2.6369  188.0530   48.4607   253.5440   275.7523   304.5176   332.2504   0   11  1 
12071.591274  87.44730   -2.6337  188.0510   48.4641   253.8994   276.0752   304.0766   332.5037   0   11  1 
12071.725492  87.45030   -2.6349  188.0480   48.4631   253.7642   276.0310   304.0467   331.7872   0   11  1 
12071.859710  87.45030   -2.6349  188.0480   48.4631   253.7973   275.8348   303.2291   331.8253   0   11  1 
12071.993928  87.45390   -2.6341  188.0450   48.4641   253.9355   276.2205   303.7426   332.1558   0   11  1 
12072.128146  87.45510   -2.6345  188.0440   48.4638   253.6762   276.1109   303.7271   331.9126   0   11  1 
12072.262364  87.45510   -2.6345  188.0440   48.4638   253.5971   275.8626   303.8021   332.1861   0   11  1 
12072.396582  87.45510   -2.6345  188.0440   48.4638   253.6926   275.8526   303.9584   331.9415   0   11  1 
12072.530800  87.35745   -2.7342  188.1760   48.3532   253.7621   276.1318   304.2286   332.0393   0   11  1 
12072.665018  87.35745   -2.7342  188.1760   48.3532   253.9113   275.9517   304.7590   332.1369   0   11  1 
12072.799236  87.24630   -2.7987  188.3320   48.2760   254.4460   275.7659   304.0795   331.7822   0   11  1 
12072.933454  87.24630   -2.7987  188.3320   48.2760   253.8735   276.3476   304.4656   332.2411   0   11  1 
12073.067672  87.24630   -2.7987  188.3320   48.2760   253.6525   275.8745   304.5349   332.3279   0   11  1 
12073.201890  86.83215   -2.8572  188.9420   48.1670   254.2580   276.3655   304.1722   332.4510   0   11  1 
12073.336108  86.76765   -2.8648  189.0370   48.1512   254.2853   276.4202   304.6827   332.2549   0   11  1 
12073.470326  86.76765   -2.8648  189.0370   48.1512   254.3723   276.5057   304.9568   332.3542   0   11  1 
12073.604544  86.48385   -2.8791  189.4580   48.0999   254.3238   276.8002   304.7829   333.4131   0   11  1 
12073.738762  86.48385   -2.8791  189.4580   48.0999   254.4957   276.9570   304.7283   332.8170   0   11  1 
12073.872980  86.48385   -2.8791  189.4580   48.0999   254.2776   276.7561   304.2721   332.9367   0   11  1 
12074.007198  85.84095   -2.9136  190.4070   47.9756   254.6708   277.2798   304.8368   333.6966   0   11  1 
12074.141416  85.84095   -2.9136  190.4070   47.9756   254.7029   277.4497   304.9469   333.5452   0   11  1 
12074.275634  85.84095   -2.9136  190.4070   47.9756   255.6912   278.1065   306.0260   334.5578   0   11  1 
12074.409852  85.84095   -2.9136  190.4070   47.9756   255.0515   277.9644   305.6034   334.1766   0   11  1 
12074.544070  85.20390   -2.9384  191.3450   47.8537   255.5628   277.8768   305.8849   334.2333   0   11  1 
12074.678288  85.20390   -2.9384  191.3450   47.8537   255.1324   277.5685   305.5678   334.3918   0   11  1 
12074.812506  84.95040   -2.9468  191.7170   47.8044   254.9654   277.5567   305.4191   334.1723   0   11  1 
12074.946724  84.95040   -2.9468  191.7170   47.8044   254.8674   277.2851   305.2210   334.0212   0   11  1 
12075.080942  84.95040   -2.9468  191.7170   47.8044   254.0998   276.7471   305.2427   333.3476   0   11  1 
12075.215160  84.64170   -2.9592  192.1690   47.7406   254.7253   277.1983   305.0739   333.2999   0   11  1 
12075.349378  84.23280   -2.9700  192.7670   47.6587   254.4044   277.0262   304.6737   333.2099   0   11  0 
12075.483596  84.23280   -2.9700  192.7670   47.6587   254.4631   276.3940   304.5910   332.7092   0   11  0 
12075.617814  83.92545   -2.9796  193.2150   47.5936   254.0933   276.6022   304.8584   332.6150   0   11  0 
12075.752032  83.92545   -2.9796  193.2150   47.5936   253.8564   276.2912   304.0804   333.1399   0   11  0 
12075.886250  83.92545   -2.9796  193.2150   47.5936   254.1855   275.5934   304.4470   332.2683   0   11  0 
12076.020468  83.66805   -2.9844  193.5900   47.5408   254.1049   275.8352   304.1944   332.5779   0   11  0 
12076.154686  83.40465   -2.9316  193.9900   47.5421   254.3076   275.4720   304.1536   332.1605   0   11  0 
12076.288904  83.40465   -2.9316  193.9900   47.5421   253.9531   275.3819   303.8047   332.1258   0   11  0 
12076.423122  83.22930   -2.7959  194.2860   47.6408   253.6833   275.7987   304.2492   331.9614   0   11  0 
12076.557340  83.15775   -2.7018  194.4190   47.7188   253.7613   275.8275   304.1865   331.8612   0   11  0 
12076.691558  83.15775   -2.7018  194.4190   47.7188   253.7148   275.6855   303.8709   332.5314   0   11  0 
12076.825776  83.05605   -2.5916  194.6020   47.8062   253.8532   276.0811   304.1042   332.5848   0   11  0 
12076.959994  83.02155   -2.5305  194.6720   47.8590   253.5938   275.7015   303.7950   332.0710   0   11  0 
12077.094212  83.02155   -2.5305  194.6720   47.8590   253.7038   276.2941   304.0300   332.2789   0   11  0 
12077.228430  83.03190   -2.4924  194.6700   47.8982   253.6611   275.9492   304.1948   331.9909   0   11  0 
12077.362648  83.02410   -2.4845  194.6850   47.9042   253.9861   275.8596   303.9236   332.4191   0   11  0 
12077.496866  83.02410   -2.4845  194.6850   47.9042   253.4521   276.0383   303.4188   332.4238   0   11  0 
12077.631084  83.02455   -2.4779  194.6870   47.9107   253.8717   275.7333   303.9787   332.8759   0   12  1 
12077.765302  83.02560   -2.4649  194.6910   47.9234   253.5971   276.9515   304.0613   332.6724   0   12  1 
12077.899520  83.02560   -2.4649  194.6910   47.9234   253.9402   275.7565   303.8650   331.9041   0   12  1 
12078.033738  83.02515   -2.4587  194.6950   47.9292   254.0312   276.3856   303.4284   332.6671   0   12  1 
12078.167956  83.02500   -2.4536  194.6980   47.9340   253.9618   276.0435   304.1138   331.9983   0   12  1 
12078.302174  83.02500   -2.4536  194.6980   47.9340   253.8103   276.3987   304.0675   332.7480   0   12  1 
12078.436392  83.02635   -2.4510  194.6980   47.9366   253.6004   276.2640   303.9569   332.6593   0   12  1 
12078.570610  83.02605   -2.4512  194.6990   47.9363   253.8765   276.2762   303.8722   332.3024   0   12  1 
12078.704828  83.02605   -2.4512  194.6990   47.9363   254.0334   276.0927   304.2602   332.3854   0   12  1 
12078.839046  83.02815   -2.4480  194.7000   47.9394   253.9151   275.9898   304.3502   332.3876   0   12  1 
12078.973264  83.02890   -2.4482  194.7000   47.9392   254.1152   275.9172   304.1795   332.2207   0   12  1 
12079.107482  83.02890   -2.4482  194.7000   47.9392   253.9599   276.2003   304.5029   332.6701   0   12  1 
12079.241700  83.02890   -2.4482  194.7000   47.9392   254.2778   276.0863   304.4669   332.4573   0   12  1 
12079.375918  83.07435   -2.4046  194.6490   47.9909   254.4464   276.2792   304.3066   332.2555   0   12  1 
12079.510136  83.07435   -2.4046  194.6490   47.9909   253.9378   275.7702   304.1440   331.9770   0   12  1 
12079.644354  83.19795   -2.2695  194.5100   48.1481   254.1784   275.8499   304.0641   332.3612   0   12  1 
12079.778572  83.19795   -2.2695  194.5100   48.1481   253.8486   275.9707   303.6885   332.3214   0   12  1 
12079.912790  83.19795   -2.2695  194.5100   48.1481   253.8516   275.7894   304.2188   332.2551   0   12  1 
12080.047008  83.52810   -2.1796  194.0530   48.3012   254.1823   276.5122   303.7368   332.4498   0   12  1 
12080.181226  83.66130   -2.1655  193.8610   48.3407   253.4698   276.2285   304.0539   333.3497   0   12  1 
12080.315444  83.66130   -2.1655  193.8610   48.3407   254.1208   276.4421   304.6164   332.9894   0   12  1 
12080.449662  83.66130   -2.1655  193.8610   48.3407   254.2196   276.0626   304.4490   332.9585   0   12  1 
12080.583880  84.15090   -2.1551  193.1410   48.4423   253.9253   276.8084   305.1385   333.4063   0   12  1 
12080.718098  84.15090   -2.1551  193.1410   48.4423   255.0038   277.0931   305.0035   332.7596   0   12  1 
12080.852316  84.40830   -2.1572  192.7590   48.4865   255.3088   277.4863   305.6210   333.7508   0   12  1 
12080.986534  84.40830   -2.1572  192.7590   48.4865   255.5344   277.7001   306.2901   334.1012   0   12  1 
12081.120752  84.40830   -2.1572  192.7590   48.4865   258.8631   281.1281   309.9422   338.1697   0   12  1 
12081.254970  84.87450   -2.1723  192.0630   48.5519   260.3150   282.5934   312.1240   340.1084   0   12  1 
12081.389188  85.02300   -2.1763  191.8410   48.5726   261.5493   283.9887   313.9635   341.2199   0   12  1 
12081.523406  85.02300   -2.1763  191.8410   48.5726   262.1819   284.2780   315.0093   341.9292   0   12  1 
12081.657624  85.02300   -2.1763  191.8410   48.5726   260.3313   282.2796   312.0368   339.7321   0   12  1 
12081.791842  85.63620   -2.1969  190.9220   48.6495   259.4814   280.8768   310.7260   338.9404   0   12  1 
12081.926060  85.63620   -2.1969  190.9220   48.6495   255.1328   277.4875   305.5300   334.1605   0   12  1 
12082.060278  85.63620   -2.1969  190.9220   48.6495   255.0435   276.9629   305.3554   333.1281   0   12  1 
12082.194496  86.17530   -2.2171  190.1110   48.7088   254.2736   276.1161   304.6023   332.7291   0   12  1 
12082.328714  86.17530   -2.2171  190.1110   48.7088   254.0658   276.3545   303.9932   332.4772   0   12  0 
12082.462932  86.46660   -2.2292  189.6720   48.7371   254.0249   276.1321   304.0883   332.7236   0   12  0 
12082.597150  86.46660   -2.2292  189.6720   48.7371   253.8965   276.1932   304.0277   332.8668   0   12  0 
12082.731368  86.46660   -2.2292  189.6720   48.7371   253.7043   276.3078   304.0591   332.4314   0   12  0 
12082.865586  86.61405   -2.2327  189.4500   48.7534   254.3093   276.3656   304.0079   332.2789   0   12  0 
12082.999804  86.83140   -2.2620  189.1180   48.7527   253.0792   275.9390   304.1213   331.8436   0   12  0 
12083.134022  86.83140   -2.2620  189.1180   48.7527   253.8032   276.2518   303.6973   332.2956   0   12  0 
12083.268240  87.05130   -2.3055  188.7800   48.7372   254.0481   276.1427   303.0704   332.0509   0   12  0 
12083.402458  87.23685   -2.2738  188.5070   48.7913   253.8122   276.2951   303.9985   332.4110   0   12  0 
12083.536676  87.23685   -2.2738  188.5070   48.7913   254.0340   276.0685   303.5078   332.0854   0   12  0 
12083.670894  87.33720   -2.2829  188.3550   48.7941   253.4741   275.6263   304.0045   332.3000   0   12  0 
12083.805112  87.40200   -2.2900  188.2570   48.7946   253.8220   276.1957   304.0276   332.0871   0   12  0 
12083.939330  87.40200   -2.2900  188.2570   48.7946   254.2227   275.8224   304.1987   332.2100   0   12  0 
12084.073548  87.43230   -2.2760  188.2150   48.8119   254.1305   275.6555   304.2753   331.8925   0   12  0 
12084.207766  87.43230   -2.2740  188.2170   48.8138   254.1688   275.5434   304.2095   331.4195   0   13  1 
12084.341984  87.43230   -2.2740  188.2170   48.8138   253.6748   275.3901   303.2971   332.1505   0   13  1 
12084.476202  87.43665   -2.2716  188.2120   48.8166   253.8645   275.8337   303.7535   331.6281   0   13  1 
12084.610420  87.44070   -2.2671  188.2080   48.8214   253.6045   275.5484   303.8511   332.0542   0   13  1 
12084.744638  87.44070   -2.2671  188.2080   48.8214   254.0099   276.2121   304.5050   332.2916   0   13  1 
12084.878856  87.44385   -2.2680  188.2040   48.8208   253.8387   275.9238   303.6818   332.0435   0   13  1 
12085.013074  87.44625   -2.2666  188.2020   48.8224   253.7544   275.3009   304.0089   331.6474   0   13  1 
12085.147292  87.44625   -2.2666  188.2020   48.8224   253.8735   275.6236   303.9848   332.1040   0   13  1 
12085.281510  87.44955   -2.2678  188.1980   48.8215   253.9636   275.5975   303.7134   332.1442   0   13  1 
12085.415728  87.45330   -2.2678  188.1950   48.8217   253.7374   275.9000   303.9443   331.7975   0   13  1 
12085.549946  87.45330   -2.2678  188.1950   48.8217   253.7594   275.9663   304.0186   331.9385   0   13  1 
12085.684164  87.45570   -2.2652  188.1930   48.8245   253.7767   275.3158   303.6443   331.6287   0   13  1 
12085.818382  87.45570   -2.2652  188.1930   48.8245   253.4686   275.7527   303.7622   331.6050   0   13  1 
12085.952600  87.45570   -2.2652  188.1930   48.8245   253.6181   275.5842   303.8316   331.9549   0   13  1 
12086.086818  87.38805   -2.3379  188.2850   48.7441   253.6908   275.9708   303.5291   331.3881   0   13  1 
12086.221036  87.28440   -2.4225  188.4270   48.6476   253.5892   275.9405   303.9741   331.6937   0   13  1 
12086.355254  87.28440   -2.4225  188.4270   48.6476   253.7548   275.8449   303.6998   332.0294   0   13  1 
12086.489472  87.28440   -2.4225  188.4270   48.6476   254.0349   275.7902   303.9096   331.6767   0   13  1 
12086.623690  87.03210   -2.4751  188.7990   48.5644   254.1155   275.5820   303.5493   332.1004   0   13  1 
12086.757908  87.03210   -2.4751  188.7990   48.5644   254.1731   276.2224   304.1698   332.3822   0   13  1 
12086.892126  86.83740   -2.5038  189.0870   48.5112   254.2417   276.1472   303.9958   331.9913   0   13  1 
12087.026344  86.83740   -2.5038  189.0870   48.5112   254.2446   276.0064   304.3246   332.1071   0   13  1 
12087.160562  86.83740   -2.5038  189.0870   48.5112   253.8063   275.8232   304.0787   332.9301   0   13  1 
12087.294780  86.30280   -2.5373  189.8830   48.4063   253.8903   276.0072   304.2179   332.5109   0   13  1 
12087.428998  86.07390   -2.5508  190.2230   48.3605   254.2606   275.9973   304.0781   332.4850   0   13  1 
12087.563216  86.07390   -2.5508  190.2230   48.3605   255.0126   276.5436   305.3146   333.5648   0   13  1 
12087.697434  86.07390   -2.5508  190.2230   48.3605   255.6498   277.6023   306.0694   334.5506   0   13  1 
12087.831652  85.51890   -2.5733  191.0470   48.2552   255.8901   277.9372   306.2359   334.3880   0   13  1 
12087.965870  85.51890   -2.5733  191.0470   48.2552   256.3805   278.4769   306.6625   334.8082   0   13  1 
12088.100088  85.29255   -2.5869  191.3810   48.2061   256.5529   278.1903   306.6574   334.4691   0   13  1 
12088.234306  85.03965   -2.5956  191.7550   48.1565   255.7642   277.7114   306.1072   334.9325   0   13  1 
12088.368524  85.03965   -2.5956  191.7550   48.1565   254.9311   277.1208   305.3218   333.3155   0   13  1 
12088.502742  85.03965   -2.5956  191.7550   48.1565   254.7276   276.5568   305.2707   332.8435   0   13  1 
12088.636960  85.03965   -2.5956  191.7550   48.1565   254.5329   276.3801   305.1418   332.9188   0   13  1 
12088.771178  84.47880   -2.6173  192.5810   48.0396   254.3172   276.4947   304.8210   332.6104   0   13  1 
12088.905396  84.32745   -2.6206  192.8040   48.0096   254.3825   275.8846   304.7110   333.1064   0   13  0 
12089.039614  84.32745   -2.6206  192.8040   48.0096   254.6299   276.0902   304.3798   332.7604   0   13  0 
12089.173832  84.02205   -2.6311  193.2520   47.9437   253.9269   275.9298   304.3595   332.5429   0   13  0 
12089.308050  84.02205   -2.6311  193.2520   47.9437   254.0154   275.8538   303.8692   331.9132   0   13  0 
12089.442268  84.02205   -2.6311  193.2520   47.9437   253.6325   275.8389   304.3859   332.2861   0   13  0 
12089.576486  83.68980   -2.6385  193.7390   47.8740   253.7035   275.5492   303.5831   331.9094   0   13  0 
12089.710704  83.50320   -2.5844  194.0290   47.8911   253.5246   275.5803   303.3184   331.6611   0   13  0 
12089.844922  83.50320   -2.5844  194.0290   47.8911   253.5213   275.0942   303.8868   331.5219   0   13  0 
12089.979140  83.30355   -2.4482  194.3630   47.9854   253.8208   275.2426   302.9179   331.4441   0   13  0 
12090.113358  83.14710   -2.2828  194.6440   48.1160   253.4401   274.9143   303.1658   331.4978   0   13  0 
12090.247576  83.14710   -2.2828  194.6440   48.1160   253.3168   274.8446   304.0332   331.0293   0   13  0 
12090.381794  83.09025   -2.2318  194.7440   48.1543   253.6590   274.9578   303.6051   331.5613   0   13  0 
12090.516012  83.02365   -2.1490  194.8690   48.2216   253.6820   275.2137   303.7390   331.3942   0   13  0 
12090.650230  83.02365   -2.1490  194.8690   48.2216   253.6272   275.6033   303.7018   331.9889   0   13  0 
12090.784448  83.03055   -2.1261  194.8670   48.2453   253.5064   275.3098   303.4067   331.6773   0   13  0 
12090.918666  83.02485   -2.1154  194.8800   48.2544   253.5128   275.0985   303.6577   331.4176   0   13  0 
12091.052884  83.02485   -2.1154  194.8800   48.2544   253.9559   274.9825   304.0379   331.5284   0   14  1 
12091.187102  83.02410   -2.1045  194.8860   48.2647   254.2554   274.9390   303.5884   331.5677   0   14  1 
12091.321320  83.02545   -2.0972  194.8870   48.2720   254.1257   275.0608   304.0016   331.0501   0   14  1 
12091.455538  83.02545   -2.0972  194.8870   48.2720   253.4829   274.8035   303.6475   331.3233   0   14  1 
12091.589756  83.02365   -2.0911  194.8930   48.2774   254.0281   275.2348   304.1756   331.5028   0   14  1 
12091.723974  83.02575   -2.0850  194.8930   48.2837   253.8325   274.7539   303.7251   331.0100   0   14  1 
12091.858192  83.02575   -2.0850  194.8930   48.2837   253.9106   275.5637   303.9429   331.3367   0   14  1 
12091.992410  83.02590   -2.0827  194.8950   48.2858   253.6470   275.1921   304.1708   331.8159   0   14  1 
12092.126628  83.02725   -2.0804  194.8960   48.2880   253.5010   275.1246   303.5770   331.3363   0   14  1 
12092.260846  83.02725   -2.0804  194.8960   48.2880   253.4994   275.2995   303.6467   331.3735   0   14  1 
12092.395064  83.02815   -2.0804  194.8970   48.2878   253.9844   275.1334   304.1212   331.2131   0   14  1 
12092.529282  83.02815   -2.0804  194.8970   48.2878   253.8261   274.8483   303.6749   331.6144   0   14  1 
12092.663500  83.02815   -2.0804  194.8970   48.2878   253.9355   275.2836   303.6098   331.5447   0   14  1 
12092.797718  83.10135   -2.0061  194.8140   48.3754   253.6604   275.5632   304.0735   331.6630   0   14  1 
12092.931936  83.10135   -2.0061  194.8140   48.3754   253.3882   275.7055   303.5428   331.8609   0   14  1 
12093.066154  83.20275   -1.8972  194.6990   48.5026   253.8088   275.1873   303.9381   332.5211   0   14  1 
12093.200372  83.38755   -1.8138  194.4520   48.6214   253.6397   275.9454   303.9522   331.8911   0   14  1 
12093.334590  83.38755   -1.8138  194.4520   48.6214   254.1030   275.4537   304.0495   332.1546   0   14  1 
12093.468808  83.38755   -1.8138  194.4520   48.6214   253.8902   275.2612   304.1023   331.8324   0   14  1 
12093.603026  83.71635   -1.7843  193.9740   48.7148   253.6151   275.3902   303.1884   331.5858   0   14  1 
12093.737244  83.71635   -1.7843  193.9740   48.7148   253.7812   275.5934   304.0605   331.9824   0   14  1 
12093.871462  83.94150   -1.7753  193.6420   48.7666   253.6334   275.8239   304.1594   331.6825   0   14  1 
12094.005680  83.94150   -1.7753  193.6420   48.7666   254.2585   275.8583   304.2349   331.8687   0   14  1 
12094.139898  83.94150   -1.7753  193.6420   48.7666   254.7050   276.0561   304.9841   332.3976   0   14  1 
12094.274116  84.49500   -1.7817  192.8150   48.8617   254.9321   276.1337   304.7728   332.7837   0   14  1 
12094.408334  84.71415   -1.7867  192.4860   48.8953   257.2653   279.0027   308.1358   336.3719   0   14  1 
12094.542552  84.71415   -1.7867  192.4860   48.8953   260.0678   282.1682   311.0848   340.2235   0   14  1 
12094.676770  84.71415   -1.7867  192.4860   48.8953   261.5860   283.8705   313.3800   342.2943   0   14  1 
12094.810988  85.32585   -1.8073  191.5640   48.9772   264.9859   287.8419   317.5295   346.7713   0   14  1 
12094.945206  85.32585   -1.8073  191.5640   48.9772   263.5137   286.2402   315.9526   344.3589   0   14  1 
12095.079424  85.47300   -1.8112  191.3420   48.9968   263.0484   285.3857   315.4761   343.9873   0   14  1 
12095.213642  85.47300   -1.8112  191.3420   48.9968   257.2223   279.7325   308.4513   336.6137   0   14  1 
12095.347860  85.47300   -1.8112  191.3420   48.9968   256.0345   278.6611   306.8732   335.2745   0   14  1 
12095.482078  85.93290   -1.8285  190.6460   49.0502   254.4275   277.0226   304.4134   333.3093   0   14  1 
12095.616296  86.15340   -1.8357  190.3120   49.0754   253.8895   275.4712   303.6317   331.8785   0   14  0 
12095.750514  86.15340   -1.8357  190.3120   49.0754   254.0269   276.0482   303.9483   331.3617   0   14  0 
12095.884732  86.39490   -1.8468  189.9450   49.0986   253.8292   275.4306   303.3974   331.7935   0   14  0 
12096.018950  86.39490   -1.8468  189.9450   49.0986   253.7201   274.9033   304.2614   331.2589   0   14  0 
12096.153168  86.39490   -1.8468  189.9450   49.0986   253.7977   274.6500   303.8593   331.1472   0   14  0 
12096.287386  86.68575   -1.8537  189.5040   49.1314   254.1116   275.0771   303.6375   331.2294   0   14  0 
12096.421604  86.88585   -1.9002  189.1920   49.1115   253.5894   275.1865   303.6958   331.7552   0   14  0 
12096.555822  86.88585   -1.9002  189.1920   49.1115   253.7398   274.7559   303.6380   331.3832   0   14  0 
12096.690040  87.08385   -1.9029  188.8920   49.1340   253.9583   275.5989   304.0576   331.2580   0   14  0 
12096.824258  87.23145   -1.9018  188.6690   49.1534   253.7197   275.8267   303.7595   331.5937   0   14  0 
12096.958476  87.23145   -1.9018  188.6690   49.1534   253.7320   275.5806   303.8443   331.5435   0   14  0 
12097.092694  87.34665   -1.9026  188.4950   49.1664   254.0711   274.9759   303.8871   332.0117   0   14  0 
12097.226912  87.42480   -1.9003  188.3780   49.1779   253.6505   275.3323   303.5450   331.6465   0   14  0 
12097.361130  87.42480   -1.9003  188.3780   49.1779   253.8553   275.2375   303.6958   331.3185   0   14  0 
12097.495348  87.42510   -1.8989  188.3790   49.1793   253.6316   275.0050   303.8824   331.4681   0   15  1 
12097.629566  87.43350   -1.8963  188.3680   49.1827   253.6053   275.8217   303.5505   332.0085   0   15  1 
12097.763784  87.43350   -1.8963  188.3680   49.1827   253.7202   275.1714   303.5072   332.1229   0   15  1 
12097.898002  87.43770   -1.8939  188.3630   49.1855   253.8370   275.4401   304.0737   332.0012   0   15  1 
12098.032220  87.44010   -1.8929  188.3610   49.1867   253.6368   275.1934   303.5348   331.7743   0   15  1 
12098.166438  87.44010   -1.8929  188.3610   49.1867   253.5188   275.0049   303.5655   331.4063   0   15  1 
12098.300656  87.44775   -1.8917  188.3510   49.1887   253.9497   276.0124   303.6521   331.9907   0   15  1 
12098.434874  87.44790   -1.8918  188.3520   49.1885   253.6221   275.2160   303.3998   331.7537   0   15  1 
12098.569092  87.44790   -1.8918  188.3520   49.1885   254.1694   275.4815   303.4926   331.7281   0   15  1 
12098.703310  87.45345   -1.8933  188.3460   49.1875   253.3558   275.5896   303.5994   332.0319   0   15  1 
12098.837528  87.45345   -1.8933  188.3460   49.1875   253.6541   275.0211   303.6022   331.3790   0   15  1 
12098.971746  87.45345   -1.8933  188.3460   49.1875   253.7997   275.0422   303.3860   331.5343   0   15  1 
12099.105964  87.45495   -1.8938  188.3460   49.1870   253.3950   275.0550   303.6097   331.4362   0   15  1 
12099.240182  87.41040   -1.9429  188.4060   49.1328   253.6239   275.7543   303.6013   331.8983   0   15  1 
12099.374400  87.41040   -1.9429  188.4060   49.1328   253.6258   275.1480   303.4928   331.5606   0   15  1 
12099.508618  87.41040   -1.9429  188.4060   49.1328   253.6345   274.7436   303.9142   330.6420   0   15  1 
12099.642836  87.16290   -2.0845  188.7580   48.9618   253.3904   275.2877   303.6510   331.1627   0   15  1 
12099.777054  87.16290   -2.0845  188.7580   48.9618   253.6872   275.0461   303.2196   331.4744   0   15  1 
12099.911272  87.07050   -2.0939  188.8970   48.9408   253.4149   275.5149   303.2793   331.6696   0   15  1 
12100.045490  86.83860   -2.1250  189.2430   48.8801   253.7726   274.8987   303.4975   331.3972   0   15  1 
12100.179708  86.83860   -2.1250  189.2430   48.8801   253.3628   275.2234   303.7430   331.4450   0   15  1 
12100.313926  86.83860   -2.1250  189.2430   48.8801   253.3867   275.1420   303.2350   331.8801   0   15  1 
12100.448144  86.22780   -2.1672  190.1580   48.7546   253.5625   275.6313   304.1269   332.6375   0   15  1 
12100.582362  86.22780   -2.1672  190.1580   48.7546   255.3118   276.9719   305.5139   333.7917   0   15  1 
12100.716580  85.90410   -2.1851  190.6420   48.6895   255.6145   277.6968   306.2133   334.2050   0   15  1 
12100.850798  85.90410   -2.1851  190.6420   48.6895   259.7943   281.5824   311.2650   339.3996   0   15  1 
12100.985016  85.90410   -2.1851  190.6420   48.6895   260.3183   282.5260   312.6001   339.9771   0   15  1 
12101.119234  85.42800   -2.2043  191.3530   48.5970   261.4666   283.7224   312.8421   341.1376   0   15  1 
12101.253452  85.42800   -2.2043  191.3530   48.5970   259.2831   281.6619   310.8284   339.0952   0   15  1 
12101.387670  85.27695   -2.2146  191.5770   48.5625   257.6442   279.3360   308.7744   336.9421   0   15  1 
12101.521888  85.27695   -2.2146  191.5770   48.5625   256.4049   278.5759   307.2471   335.4843   0   15  1 
12101.656106  85.27695   -2.2146  191.5770   48.5625   254.5431   276.4900   304.5570   333.1436   0   15  1 
12101.790324  84.72105   -2.2319  192.4040   48.4521   254.1578   276.3128   304.8021   332.6468   0   15  1 
12101.924542  84.72105   -2.2319  192.4040   48.4521   254.0377   276.1971   304.7167   332.4596   0   15  1 
12102.058760  84.72105   -2.2319  192.4040   48.4521   253.5374   275.5483   303.6417   332.5366   0   15  1 
12102.192978  84.49530   -2.2391  192.7390   48.4054   254.2428   275.9758   303.8464   332.4281   0   15  1 
12102.327196  84.01305   -2.2577  193.4510   48.2990   253.5425   276.1289   303.4377   332.4823   0   15  0 
12102.461414  84.01305   -2.2577  193.4510   48.2990   253.2442   275.5836   303.0057   332.1813   0   15  0 
12102.595632  83.78460   -2.2633  193.7880   48.2502   253.1887   275.3768   303.5411   331.6173   0   15  0 
12102.729850  83.78460   -2.2633  193.7880   48.2502   253.1988   275.5038   303.0088   331.8534   0   15  0 
12102.864068  83.78460   -2.2633  193.7880   48.2502   253.3260   275.1083   303.2663   331.4145   0   15  0 
12102.998286  83.53365   -2.2678  194.1580   48.1970   253.5785   274.9684   303.6934   331.6984   0   15  0 
12103.132504  83.31315   -2.1794  194.5110   48.2398   253.4273   275.5250   303.7980   331.5464   0   15  0 
12103.266722  83.31315   -2.1794  194.5110   48.2398   253.1032   274.8103   303.1667   331.1674   0   15  0 
12103.400940  83.21820   -2.0930  194.6780   48.3052   253.4208   274.9552   303.1156   331.3708   0   15  0 
12103.535158  83.07615   -1.9162  194.9440   48.4492   253.0903   275.1923   303.2369   331.7522   0   15  0 
12103.669376  83.07615   -1.9162  194.9440   48.4492   252.8711   274.8509   303.1368   331.5807   0   15  0 
12103.803594  83.02470   -1.8228  195.0510   48.5297   253.6409   275.1528   303.0920   331.7527   0   15  0 
12103.937812  83.02665   -1.7759  195.0640   48.5759   253.1296   275.7865   303.0294   331.6291   0   15  0 
12104.072030  83.02665   -1.7759  195.0640   48.5759   253.4078   275.2784   302.9339   331.5074   0   15  0 
12104.206248  83.02875   -1.7605  195.0670   48.5913   253.2240   274.9476   303.2067   331.5051   0   15  0 
12104.340466  83.02470   -1.7432  195.0800   48.6071   252.7208   275.2465   302.7991   331.4547   0   15  0 
12104.474684  83.02470   -1.7432  195.0800   48.6071   253.0503   275.2417   303.5919   331.7587   0   15  0 
12104.608902  83.02500   -1.7376  195.0820   48.6126   253.1191   274.7694   302.9851   331.5925   0   16  1 
12104.743120  83.02500   -1.7376  195.0820   48.6126   252.9890   275.4729   303.3771   331.6875   0   16  1 
12104.877338  83.02560   -1.7216  195.0880   48.6281   253.4528   274.6729   303.6594   332.1262   0   16  1 
12105.011556  83.02455   -1.7180  195.0920   48.6312   253.2220   275.0540   302.5043   331.7627   0   16  1 
12105.145774  83.02455   -1.7180  195.0920   48.6312   252.9973   274.7585   303.1003   331.0215   0   16  1 
12105.279992  83.02635   -1.7132  195.0920   48.6361   253.6492   274.8823   303.5092   331.0455   0   16  1 
12105.414210  83.02485   -1.7145  195.0950   48.6344   253.5908   275.1267   302.7563   332.0912   0   16  1 
12105.548428  83.02485   -1.7145  195.0950   48.6344   253.0003   275.3558   302.5849   331.7796   0   16  1 
12105.682646  83.02650   -1.7115  195.0950   48.6375   253.4704   275.5813   303.2317   332.2296   0   16  1 
12105.816864  83.02830   -1.7110  195.0950   48.6380   253.2512   275.5864   303.3833   332.0798   0   16  1 
12105.951082  83.02830   -1.7110  195.0950   48.6380   253.3888   275.6082   303.5573   331.9851   0   16  1 
12106.085300  83.02830   -1.7110  195.0950   48.6380   253.5141   275.9736   303.6179   332.4335   0   16  1 
12106.219518  83.02995   -1.7111  195.0950   48.6379   253.2451   275.2629   302.7212   331.6137   0   16  1 
12106.353736  83.02995   -1.7111  195.0950   48.6379   253.2823   275.2248   302.5214   331.7571   0   16  1 
12106.487954  83.05275   -1.6932  195.0680   48.6600   253.3688   275.2369   302.8562   331.6958   0   16  1 
12106.622172  83.12655   -1.6193  194.9830   48.7475   253.1901   275.2975   303.0291   331.8226   0   16  1 
12106.756390  83.12655   -1.6193  194.9830   48.7475   253.6121   275.1026   303.4100   331.7730   0   16  1 
12106.890608  83.12655   -1.6193  194.9830   48.7475   253.5099   275.6394   302.9548   332.0506   0   16  1 
12107.024826  83.43285   -1.4391  194.5850   48.9863   253.0677   275.5305   303.0080   331.9942   0   16  1 
12107.159044  83.43285   -1.4391  194.5850   48.9863   252.9600   275.7876   302.8666   331.7771   0   16  1 
12107.293262  83.61450   -1.4203  194.3200   49.0409   253.1495   275.1441   302.7330   331.6497   0   16  1 
12107.427480  83.61450   -1.4203  194.3200   49.0409   253.2035   275.0824   303.0424   331.5699   0   16  1 
12107.561698  83.61450   -1.4203  194.3200   49.0409   252.9432   274.9179   303.2023   331.1102   0   16  1 
12107.695916  84.19545   -1.4051  193.4550   49.1673   253.3290   274.8805   303.1730   331.0795   0   16  1 
12107.830134  84.19545   -1.4051  193.4550   49.1673   253.7598   275.0159   303.7031   331.1554   0   16  1 
12107.964352  84.27105   -1.4033  193.3420   49.1831   253.8914   275.3889   303.3261   331.4820   0   16  1 
12108.098570  84.63810   -1.4110  192.7880   49.2419   253.8213   275.4389   303.9109   332.1061   0   16  1 
12108.232788  84.63810   -1.4110  192.7880   49.2419   254.6264   276.6002   304.9262   333.0513   0   16  1 
12108.367006  84.63810   -1.4110  192.7880   49.2419   255.2754   276.5492   305.2795   333.3341   0   16  1 
12108.501224  85.17060   -1.4255  191.9810   49.3192   257.2519   278.4649   308.1929   336.0332   0   16  1 
12108.635442  85.17060   -1.4255  191.9810   49.3192   256.6454   278.2369   307.3010   335.0645   0   16  1 
12108.769660  85.41660   -1.4332  191.6070   49.3520   256.9994   278.6106   307.7116   335.1934   0   16  1 
12108.903878  85.41660   -1.4332  191.6070   49.3520   254.8785   277.1065   305.4152   334.2619   0   16  1 
12109.038096  85.41660   -1.4332  191.6070   49.3520   254.3986   276.7353   303.8521   332.7171   0   16  1 
12109.172314  85.84890   -1.4502  190.9480   49.4031   254.1755   275.5203   303.2561   332.1046   0   16  1 
12109.306532  86.08980   -1.4602  190.5800   49.4294   253.6442   275.3451   302.7976   331.9868   0   16  1 
12109.440750  86.08980   -1.4602  190.5800   49.4294   253.8196   275.1786   303.6674   331.9555   0   16  0 
12109.574968  86.45250   -1.4721  190.0260   49.4699   253.7552   275.7602   303.5726   332.1718   0   16  0 
12109.709186  86.45250   -1.4721  190.0260   49.4699   253.2128   275.0275   303.4389   331.3801   0   16  0 
12109.843404  86.45250   -1.4721  190.0260   49.4699   253.5601   275.3291   303.3810   332.2432   0   16  0 
12109.977622  86.62080   -1.4763  189.7690   49.4891   253.0693   275.1396   302.6590   331.6592   0   16  0 
12110.111840  86.62080   -1.4763  189.7690   49.4891   253.5131   274.5556   303.4631   331.3699   0   16  0 
12110.246058  86.81295   -1.5019  189.4710   49.4896   253.3303   275.4222   303.6244   331.4496   0   16  0 
12110.380276  86.90625   -1.5469  189.3200   49.4572   253.3737   275.3322   303.5114   331.4431   0   16  0 
12110.514494  86.90625   -1.5469  189.3200   49.4572   253.4913   275.0273   302.7458   331.3622   0   16  0 
12110.648712  87.17085   -1.5304  188.9200   49.5075   253.2002   275.2983   302.9998   331.4843   0   16  0 
12110.782930  87.32550   -1.5393  188.6830   49.5178   252.9045   274.8217   302.8633   331.7816   0   16  0 
12110.917148  87.32550   -1.5393  188.6830   49.5178   253.6819   274.4717   303.4022   331.0759   0   16  0 
12111.051366  87.40380   -1.5464  188.5630   49.5202   253.8231   274.8154   303.8843   331.4344   0   16  0 
12111.185584  87.42705   -1.5399  188.5300   49.5293   253.6356   275.2194   303.1773   331.2068   0   16  0 
12111.319802  87.42705   -1.5399  188.5300   49.5293   253.3765   274.7729   302.9591   331.2801   0   16  0 
12111.454020  87.43155   -1.5367  188.5250   49.5329   253.4318   274.7893   303.1385   331.4071   0   17  1 
12111.588238  87.43575   -1.5329  188.5200   49.5372   253.5490   274.9987   303.3723   331.5237   0   17  1 
12111.722456  87.43575   -1.5329  188.5200   49.5372   253.8435   274.8910   303.1006   331.0296   0   17  1 
12111.856674  87.43905   -1.5323  188.5170   49.5380   253.7239   274.9214   303.1530   331.1349   0   17  1 
12111.990892  87.44610   -1.5300  188.5080   49.5410   253.4133   275.1062   303.0304   331.1397   0   17  1 
12112.125110  87.44610   -1.5300  188.5080   49.5410   253.4851   274.6863   302.9717   331.0810   0   17  1 
12112.259328  87.44550   -1.5301  188.5100   49.5408   253.2647   274.7576   302.7377   331.3980   0   17  1 
12112.393546  87.45015   -1.5312  188.5040   49.5401   253.0136   274.9892   302.7835   332.0440   0   17  1 
12112.527764  87.45015   -1.5312  188.5040   49.5401   253.5920   274.7558   302.9489   331.1878   0   17  1 
12112.661982  87.45390   -1.5313  188.5010   49.5403   253.2493   275.2935   303.1301   331.5237   0   17  1 
12112.796200  87.45390   -1.5313  188.5010   49.5403   253.3422   275.0642   303.8080   331.3575   0   17  1 
12112.930418  87.45390   -1.5313  188.5010   49.5403   253.6862   274.8897   303.2697   331.2088   0   17  1 
12113.064636  87.45690   -1.5304  188.4990   49.5413   253.2957   274.4657   303.3555   331.0074   0   17  1 
12113.198854  87.40860   -1.5809  188.5650   49.4852   253.5551   274.6566   303.3534   331.2520   0   17  1 
12113.333072  87.40860   -1.5809  188.5650   49.4852   253.4167   274.7369   303.3444   330.8617   0   17  1 
12113.467290  87.31815   -1.6634  188.6890   49.3921   253.3944   274.7296   303.2440   331.1413   0   17  1 
12113.601508  87.31815   -1.6634  188.6890   49.3921   253.3411   274.3683   303.3282   331.0549   0   17  1 
12113.735726  87.31815   -1.6634  188.6890   49.3921   253.6197   274.6766   303.2412   330.7713   0   17  1 
12113.869944  86.94030   -1.7532  189.2510   49.2548   253.2105   274.5733   302.8603   331.3284   0   17  1 
12114.004162  86.81385   -1.7693  189.4410   49.2220   253.0944   275.2995   302.6438   331.5464   0   17  1 
12114.138380  86.81385   -1.7693  189.4410   49.2220   253.4145   274.9330   302.8426   331.3886   0   17  1 
12114.272598  86.81385   -1.7693  189.4410   49.2220   253.4515   275.0269   302.8038   331.3628   0   17  1 
12114.406816  86.20140   -1.8090  190.3650   49.0971   253.4064   275.4215   303.1279   331.8610   0   17  1 
12114.541034  86.20140   -1.8090  190.3650   49.0971   255.1665   277.3864   305.1440   334.2476   0   17  1 
12114.675252  86.12760   -1.8135  190.4760   49.0818   257.8031   280.2996   309.2316   337.6399   0   17  1 
12114.809470  86.12760   -1.8135  190.4760   49.0818   259.0600   281.9510   309.8381   339.4654   0   17  1 
12114.943688  86.12760   -1.8135  190.4760   49.0818   264.3549   287.1299   316.5521   345.6705   0   17  1 
12115.077906  85.57875   -1.8387  191.3020   48.9729   263.5185   286.4088   315.2338   344.4210   0   17  1 
12115.212124  85.33140   -1.8535  191.6720   48.9184   263.7065   286.5228   315.9084   345.1684   0   17  1 
12115.346342  85.33140   -1.8535  191.6720   48.9184   258.2680   281.0650   309.3689   338.4202   0   17  1 
12115.480560  85.33140   -1.8535  191.6720   48.9184   256.3810   279.1379   306.6785   336.7947   0   17  1 
12115.614778  84.87975   -1.8715  192.3480   48.8248   254.9906   277.4269   305.1638   334.1431   0   17  1 
12115.748996  84.87975   -1.8715  192.3480   48.8248   253.9415   275.5999   303.6192   332.2562   0   17  1 
12115.883214  84.87975   -1.8715  192.3480   48.8248   253.9428   275.8267   303.7369   332.4676   0   17  1 
12116.017432  84.62775   -1.8848  192.7230   48.7675   253.4976   275.3700   303.6429   331.8661   0   17  1 
12116.151650  84.62775   -1.8848  192.7230   48.7675   253.4530   275.3622   303.1973   332.0038   0   17  0 
12116.285868  84.07320   -1.9052  193.5480   48.6459   253.6830   275.1606   302.9037   331.5767   0   17  0 
12116.420086  84.07320   -1.9052  193.5480   48.6459   253.0692   275.4329   302.9499   331.6910   0   17  0 
12116.554304  84.07320   -1.9052  193.5480   48.6459   253.3156   275.1532   302.9452   331.8113   0   17  0 
12116.688522  83.77215   -1.9137  193.9950   48.5798   253.2837   275.0473   302.9346   331.5601   0   17  0 
12116.822740  83.77215   -1.9137  193.9950   48.5798   253.0450   275.4222   303.2118   331.5288   0   17  0 
12116.956958  83.52945   -1.9080  194.3580   48.5376   253.3311   275.0920   303.2165   331.6277   0   17  0 
12117.091176  83.40150   -1.8573  194.5640   48.5616   253.2150   274.6807   302.9755   331.5656   0   17  0 
12117.225394  83.40150   -1.8573  194.5640   48.5616   253.0084   274.6021   302.8885   331.7252   0   17  0 
12117.359612  83.19975   -1.6830  194.9190   48.6911   253.1973   274.9973   302.8089   331.5792   0   17  0 
12117.493830  83.07270   -1.5230  195.1600   48.8212   253.0117   274.5281   302.9896   331.5036   0   17  0 
12117.628048  83.07270   -1.5230  195.1600   48.8212   252.8679   274.5789   303.2572   331.4865   0   17  0 
12117.762266  83.02590   -1.4572  195.2520   48.8756   252.5109   274.8064   302.3429   331.3544   0   17  0 
12117.896484  83.02965   -1.3980  195.2670   48.9341   253.0125   274.8408   303.1107   331.0141   0   17  0 
12118.030702  83.02965   -1.3980  195.2670   48.9341   252.8678   274.4380   302.6549   330.8816   0   17  0 
12118.164920  83.02440   -1.3886  195.2790   48.9420   253.0685   274.6107   303.0077   330.7641   0   17  0 
12118.299138  83.02380   -1.3811  195.2830   48.9491   252.8044   274.5073   302.8492   331.2010   0   17  0 
12118.433356  83.02380   -1.3811  195.2830   48.9491   252.9251   275.2309   303.0033   331.3632   0   17  0 
12118.567574  83.02530   -1.3636  195.2880   48.9664   252.9674   275.4680   302.8583   331.9457   0   18  1 
12118.701792  83.02215   -1.3556  195.2970   48.9733   253.0125   274.4603   302.5425   331.5412   0   18  1 
12118.836010  83.02215   -1.3556  195.2970   48.9733   252.8197   274.6830   302.9165   331.2935   0   18  1 
12118.970228  83.02410   -1.3495  195.2970   48.9795   252.8305   274.9832   302.4991   330.8308   0   18  1 
12119.104446  83.02425   -1.3468  195.2990   48.9820   253.1805   274.9493   302.1297   332.1855   0   18  1 
12119.238664  83.02425   -1.3468  195.2990   48.9820   252.7321   275.0802   302.1379   331.6005   0   18  1 
12119.372882  83.02545   -1.3426  195.3000   48.9862   253.1024   274.6884   302.9941   331.3159   0   18  1 
12119.507100  83.02515   -1.3433  195.3010   48.9853   252.8224   275.0842   302.5085   331.2504   0   18  1 
12119.641318  83.02515   -1.3433  195.3010   48.9853   253.1070   274.9725   302.2195   331.6194   0   18  1 
12119.775536  83.02725   -1.3418  195.3010   48.9868   252.9713   275.0845   303.2304   331.3707   0   18  1 
12119.909754  83.02725   -1.3418  195.3010   48.9868   252.8177   274.9514   303.0935   331.0089   0   18  1 
12120.043972  83.03820   -1.3367  195.2890   48.9937   253.1407   275.0542   302.5434   331.7158   0   18  1 
12120.178190  83.03820   -1.3367  195.2890   48.9937   253.0832   274.6133   302.7294   331.1919   0   18  1 
12120.312408  83.03820   -1.3367  195.2890   48.9937   253.1232   274.7588   303.0583   331.7079   0   18  1 
12120.446626  83.20140   -1.1699  195.1010   49.1909   253.0139   274.8773   303.0081   331.6620   0   18  1 
12120.580844  83.20140   -1.1699  195.1010   49.1909   253.2706   275.1438   303.3646   331.6478   0   18  1 
12120.715062  83.29590   -1.1127  194.9780   49.2665   253.0096   275.0827   302.9695   331.5254   0   18  1 
12120.849280  83.38575   -1.0866  194.8520   49.3104   253.0601   274.9021   302.7252   331.7138   0   18  1 
12120.983498  83.38575   -1.0866  194.8520   49.3104   253.1218   275.0772   303.0383   331.4026   0   18  1 
12121.117716  83.38575   -1.0866  194.8520   49.3104   253.0736   275.5525   303.3786   331.4822   0   18  1 
12121.251934  83.87955   -1.0457  194.1230   49.4491   253.0847   274.9582   302.9564   331.1298   0   18  1 
12121.386152  83.87955   -1.0457  194.1230   49.4491   253.4546   275.3556   303.2190   331.6277   0   18  1 
12121.520370  84.10170   -1.0452  193.7880   49.4924   253.6777   274.9469   303.2673   331.3728   0   18  1 
12121.654588  84.10170   -1.0452  193.7880   49.4924   253.6385   274.6295   303.4439   331.1188   0   18  1 
12121.788806  84.10170   -1.0452  193.7880   49.4924   253.6707   274.9856   303.2609   331.6069   0   18  1 
12121.923024  84.56760   -1.0532  193.0810   49.5712   253.7706   275.2730   303.0813   331.6888   0   18  1 
12122.057242  84.78585   -1.0578  192.7490   49.6057   253.5674   275.0584   303.2077   331.7501   0   18  1 
12122.191460  84.78585   -1.0578  192.7490   49.6057   253.9332   275.1585   303.3484   331.8333   0   18  1 
12122.325678  84.78585   -1.0578  192.7490   49.6057   253.7389   275.2725   303.5539   331.7878   0   18  1 
12122.459896  85.31595   -1.0744  191.9390   49.6802   253.6549   275.6797   303.6847   332.1599   0   18  1 
12122.594114  85.31595   -1.0744  191.9390   49.6802   253.8164   275.5871   303.4086   331.6634   0   18  1 
12122.728332  85.55745   -1.0821  191.5690   49.7121   253.5290   275.6354   303.6243   331.9116   0   18  1 
12122.862550  85.55745   -1.0821  191.5690   49.7121   253.7764   275.1301   303.5882   331.9936   0   18  1 
12122.996768  85.55745   -1.0821  191.5690   49.7121   254.5257   275.5796   303.6628   331.9401   0   18  1 
12123.130986  85.77180   -1.0901  191.2400   49.7382   254.4821   275.9028   303.7772   331.5875   0   18  1 
12123.265204  86.29815   -1.1088  190.4310   49.7993   254.3385   275.5559   303.7857   331.9976   0   18  1 
12123.399422  86.29815   -1.1088  190.4310   49.7993   254.4783   275.2460   303.7127   331.7184   0   18  1 
12123.533640  86.51460   -1.1156  190.0980   49.8237   253.8719   275.1727   303.7393   331.0131   0   18  0 
12123.667858  86.51460   -1.1156  190.0980   49.8237   254.2331   275.4142   303.7798   331.2252   0   18  0 
12123.802076  86.51460   -1.1156  190.0980   49.8237   253.4348   274.7718   303.0600   331.3944   0   18  0 
12123.936294  86.88825   -1.1280  189.5220   49.8627   253.7328   275.0118   303.4628   331.2728   0   18  0 
12124.070512  87.02760   -1.1988  189.2940   49.8108   253.6409   274.9010   303.2829   330.9025   0   18  0 
12124.204730  87.02760   -1.1988  189.2940   49.8108   253.5070   275.2278   303.3625   331.6746   0   18  0 
12124.338948  87.06840   -1.2166  189.2280   49.7985   253.6475   274.8476   303.4003   331.3936   0   18  0 
12124.473166  87.28860   -1.1826  188.8970   49.8603   253.9691   274.7121   303.1618   331.6382   0   18  0 
12124.607384  87.28860   -1.1826  188.8970   49.8603   253.4362   274.9372   302.8363   331.3561   0   18  0 
12124.741602  87.37245   -1.1814  188.7690   49.8718   253.6248   274.7804   303.4339   331.0893   0   18  0 
12124.875820  87.41775   -1.1876  188.6990   49.8712   253.3198   274.8705   303.0778   331.3741   0   18  0 
12125.010038  87.41775   -1.1876  188.6990   49.8712   253.7311   275.0041   303.5282   331.4078   0   18  0 
12125.144256  87.43200   -1.1763  188.6800   49.8841   253.5136   274.7835   303.3059   331.2954   0   19  1 
12125.278474  87.42885   -1.1685  188.6880   49.8913   253.9635   275.3169   303.2541   331.7099   0   19  1 
12125.412692  87.42885   -1.1685  188.6880   49.8913   253.6722   275.4731   303.2741   332.1619   0   19  1 
12125.546910  87.43890   -1.1644  188.6750   49.8965   253.6191   275.7181   303.4411   332.0882   0   19  1 
12125.681128  87.44190   -1.1620  188.6720   49.8991   253.3952   275.3195   303.3763   331.7713   0   19  1 
12125.815346  87.44190   -1.1620  188.6720   49.8991   253.6111   275.1078   302.9255   331.5420   0   19  1 
12125.949564  87.44505   -1.1634  188.6680   49.8980   253.6017   274.9606   303.0148   331.7651   0   19  1 
12126.083782  87.44850   -1.1599  188.6650   49.9018   253.2566   275.1932   302.8314   331.1713   0   19  1 
12126.218000  87.44850   -1.1599  188.6650   49.9018   253.2699   275.2857   303.2716   331.1617   0   19  1 
12126.352218  87.45270   -1.1590  188.6610   49.9030   253.3443   275.2272   303.3579   331.5036   0   19  1 
12126.486436  87.45270   -1.1590  188.6610   49.9030   253.6366   274.9992   302.7540   331.8804   0   19  1 
12126.620654  87.45270   -1.1590  188.6610   49.9030   253.3576   275.0651   303.2597   331.8185   0   19  1 
12126.754872  87.44760   -1.1649  188.6710   49.8963   253.1202   274.8788   303.1432   331.2289   0   19  1 
12126.889090  87.41070   -1.2055  188.7210   49.8513   253.0032   275.3358   302.9844   331.3864   0   19  1 
12127.023308  87.41070   -1.2055  188.7210   49.8513   253.4201   274.7062   303.2638   331.0447   0   19  1 
12127.157526  87.35400   -1.2637  188.7980   49.7864   253.1026   274.7182   302.6995   331.4358   0   19  1 
12127.291744  87.35400   -1.2637  188.7980   49.7864   253.4038   275.0348   302.4045   331.5434   0   19  1 
12127.425962  87.35400   -1.2637  188.7980   49.7864   252.8152   275.1212   302.5501   331.7533   0   19  1 
12127.560180  87.05535   -1.3748  189.2380   49.6378   253.1258   275.4143   302.6395   332.0504   0   19  1 
12127.694398  87.05535   -1.3748  189.2380   49.6378   253.1095   275.2438   302.5704   331.8414   0   19  1 
12127.828616  86.79705   -1.4062  189.6290   49.5722   253.0446   275.5323   302.8167   332.0457   0   19  1 
12127.962834  86.79705   -1.4062  189.6290   49.5722   253.0950   275.1618   302.9988   331.6592   0   19  1 
12128.097052  86.79705   -1.4062  189.6290   49.5722   253.1932   274.7988   302.9910   332.0096   0   19  1 
12128.231270  86.18565   -1.4446  190.5580   49.4471   254.2156   275.9367   303.1091   332.5988   0   19  1 
12128.365488  86.11095   -1.4507  190.6710   49.4299   254.9264   276.7749   305.6981   333.4290   0   19  1 
12128.499706  86.11095   -1.4507  190.6710   49.4299   255.6748   276.9945   305.8103   334.4389   0   19  1 
12128.633924  85.81680   -1.4643  191.1170   49.3715   258.2541   279.8878   308.4457   337.5135   0   19  1 
12128.768142  85.81680   -1.4643  191.1170   49.3715   257.1218   279.6084   308.0049   337.2626   0   19  1 
12128.902360  85.81680   -1.4643  191.1170   49.3715   257.7779   279.8518   308.0106   337.2125   0   19  1 
12129.036578  85.19490   -1.4988  192.0550   49.2364   255.4574   277.0459   305.1274   334.3188   0   19  1 
12129.170796  85.19490   -1.4988  192.0550   49.2364   254.2911   276.6064   303.8888   333.3486   0   19  1 
12129.305014  85.19490   -1.4988  192.0550   49.2364   253.7091   275.5124   303.3383   332.3704   0   19  1 
12129.439232  84.87225   -1.5109  192.5410   49.1690   253.1300   275.1986   302.9618   331.6310   0   19  1 
12129.573450  84.87225   -1.5109  192.5410   49.1690   253.0346   274.8759   303.0189   331.4822   0   19  1 
12129.707668  84.87225   -1.5109  192.5410   49.1690   253.4256   274.6539   303.0228   330.9166   0   19  1 
12129.841886  84.32310   -1.5349  193.3640   49.0461   253.3851   274.6887   303.2660   331.4172   0   19  1 
12129.976104  84.32310   -1.5349  193.3640   49.0461   253.1748   275.1215   302.8665   331.0656   0   19  0 
12130.110322  84.32310   -1.5349  193.3640   49.0461   253.1644   274.7706   302.5471   331.4055   0   19  0 
12130.244540  83.77230   -1.5532  194.1870   48.9225   253.2240   274.3652   303.1261   330.8658   0   19  0 
12130.378758  83.77230   -1.5532  194.1870   48.9225   253.3418   274.6195   302.9247   330.7293   0   19  0 
12130.512976  83.77230   -1.5532  194.1870   48.9225   252.8683   274.7894   303.0675   331.2708   0   19  0 
12130.647194  83.57475   -1.5313  194.4900   48.9046   253.1126   275.1782   303.0015   331.3184   0   19  0 
12130.781412  83.57475   -1.5313  194.4900   48.9046   252.9906   274.5203   302.6858   331.2533   0   19  0 
12130.915630  83.41980   -1.3902  194.7670   49.0114   252.8459   274.4164   302.9593   330.8136   0   19  0 
12131.049848  83.26455   -1.2403  195.0480   49.1261   253.0068   274.0479   302.3013   330.7654   0   19  0 
12131.184066  83.26455   -1.2403  195.0480   49.1261   253.2724   274.2238   302.9760   330.9619   0   19  0 
12131.318284  83.11020   -1.1216  195.3190   49.2097   253.1067   274.1805   302.6382   330.9377   0   19  0 
12131.452502  83.04735   -1.0527  195.4370   49.2636   252.9742   274.7390   302.9132   330.5725   0   19  0 
12131.586720  83.04735   -1.0527  195.4370   49.2636   252.8341   274.2528   302.3467   330.9291   0   19  0 
12131.720938  83.02410   -1.0256  195.4820   49.2850   252.8096   274.4883   302.6069   331.4327   0   19  0 
12131.855156  83.03130   -1.0143  195.4760   49.2974   253.2267   273.9334   302.8827   330.6674   0   19  0 
12131.989374  83.03130   -1.0143  195.4760   49.2974   252.7167   274.5157   302.6673   330.6194   0   19  0 
12132.123592  83.02560   -1.0015  195.4900   49.3085   253.3423   274.2108   302.5794   331.0547   0   20  1 
12132.257810  83.02755   -0.9913  195.4920   49.3187   253.0287   274.3594   302.6015   331.4642   0   20  1 
12132.392028  83.02755   -0.9913  195.4920   49.3187   252.7671   274.4855   303.0545   331.0325   0   20  1 
12132.526246  83.02455   -0.9842  195.5000   49.3248   253.0038   274.4735   303.2139   331.2215   0   20  1 
12132.660464  83.02605   -0.9806  195.5000   49.3285   253.1278   274.7038   302.6846   330.9622   0   20  1 
12132.794682  83.02605   -0.9806  195.5000   49.3285   253.4370   274.4028   302.8776   331.2999   0   20  1 
12132.928900  83.02590   -0.9771  195.5030   49.3317   253.0187   274.6027   303.1275   330.9839   0   20  1 
12133.063118  83.02665   -0.9762  195.5030   49.3326   253.1649   274.4951   302.3157   330.9697   0   20  1 
12133.197336  83.02665   -0.9762  195.5030   49.3326   252.6772   274.5811   302.5132   330.7014   0   20  1 
12133.331554  83.02815   -0.9758  195.5040   49.3329   252.6521   273.8819   302.8700   330.7695   0   20  1 
12133.465772  83.02845   -0.9745  195.5050   49.3341   253.1389   273.9809   302.5857   330.3994   0   20  1 
12133.599990  83.02845   -0.9745  195.5050   49.3341   253.1860   273.9630   302.6940   330.9134   0   20  1 
12133.734208  83.02845   -0.9745  195.5050   49.3341   252.7635   274.6020   302.7558   330.6616   0   20  1 
12133.868426  83.02845   -0.9745  195.5050   49.3341   252.8195   274.0848   302.5038   331.1670   0   20  1 
12134.002644  83.12895   -0.8711  195.3910   49.4562   252.9708   274.4763   302.8468   330.7454   0   20  1 
12134.136862  83.16240   -0.8344  195.3530   49.4991   252.7425   273.9310   302.7044   330.7191   0   20  1 
12134.271080  83.16240   -0.8344  195.3530   49.4991   253.1235   274.3713   302.9930   331.0385   0   20  1 
12134.405298  83.33790   -0.7153  195.1280   49.6524   252.7495   274.8245   302.7413   331.0567   0   20  1 
12134.539516  83.33790   -0.7153  195.1280   49.6524   253.1604   274.2404   302.3852   330.9157   0   20  1 
12134.673734  83.33790   -0.7153  195.1280   49.6524   253.1611   274.5957   302.4278   330.7249   0   20  1 
12134.807952  83.80350   -0.6601  194.4420   49.8012   253.0003   274.6373   303.1968   331.0164   0   20  1 
12134.942170  83.94360   -0.6581  194.2300   49.8309   253.7412   274.4344   302.7486   331.3151   0   20  1 
12135.076388  83.94360   -0.6581  194.2300   49.8309   253.2637   274.9387   302.9235   331.0743   0   20  1 
12135.210606  83.94360   -0.6581  194.2300   49.8309   253.3015   274.4712   303.1802   331.1782   0   20  1 
12135.344824  84.55530   -0.6607  193.2980   49.9447   253.1719   274.8122   302.6848   330.8307   0   20  1 
12135.479042  84.55530   -0.6607  193.2980   49.9447   253.4169   274.9988   303.0292   331.5401   0   20  1 
12135.613260  84.70035   -0.6626  193.0760   49.9693   253.0602   274.6921   302.7482   331.0126   0   20  1 
12135.747478  84.70035   -0.6626  193.0760   49.9693   253.2121   274.9471   302.1967   331.8040   0   20  1 
12135.881696  84.70035   -0.6626  193.0760   49.9693   253.3160   274.9727   302.5807   331.2298   0   20  1 
12136.015914  85.22625   -0.6783  192.2670   50.0463   253.3222   275.2041   302.3087   330.9722   0   20  1 
12136.150132  85.46730   -0.6868  191.8950   50.0784   252.6904   274.9279   302.5609   331.0891   0   20  1 
12136.284350  85.46730   -0.6868  191.8950   50.0784   252.9925   274.7404   302.5520   330.7241   0   20  1 
12136.418568  85.46730   -0.6868  191.8950   50.0784   253.3005   275.3155   302.7781   332.2138   0   20  1 
12136.552786  85.61055   -0.6903  191.6740   50.0984   253.0342   275.6251   302.9327   331.5662   0   20  1 
12136.687004  85.61055   -0.6903  191.6740   50.0984   253.6620   274.7192   302.6929   331.6064   0   20  1 
12136.821222  86.13165   -0.7103  190.8670   50.1605   253.2656   274.7334   302.8043   331.2528   0   20  0 
12136.955440  86.34555   -0.7202  190.5350   50.1826   253.1492   274.8777   302.7818   331.3247   0   20  0 
12137.089658  86.34555   -0.7202  190.5350   50.1826   253.0405   275.1017   302.1682   331.7384   0   20  0 
12137.223876  86.34555   -0.7202  190.5350   50.1826   252.8635   274.7048   302.5393   330.9320   0   20  0 
12137.358094  86.64525   -0.7343  190.0690   50.2118   253.3088   274.9314   302.7199   331.6782   0   20  0 
12137.492312  86.64525   -0.7343  190.0690   50.2118   253.3204   274.6034   302.6199   331.4078   0   20  0 
12137.626530  86.74350   -0.7811  189.9070   50.1792   253.8106   275.4472   302.5641   331.7075   0   20  0 
12137.760748  86.97675   -0.7902  189.5450   50.2019   253.3417   275.0101   302.5430   331.7994   0   20  0 
12137.894966  86.97675   -0.7902  189.5450   50.2019   253.9792   274.9297   303.4041   331.8716   0   20  0 
12138.029184  87.17850   -0.7798  189.2350   50.2388   253.7427   274.9114   303.0778   331.8857   0   20  0 
12138.163402  87.32280   -0.8062  189.0070   50.2310   253.4582   275.2721   303.2037   331.9513   0   20  0 
12138.297620  87.32280   -0.8062  189.0070   50.2310   253.7105   274.9688   303.6525   331.8758   0   20  0 
12138.431838  87.41130   -0.7989  188.8720   50.2494   253.8852   274.9090   303.6006   331.7884   0   20  0 
12138.566056  87.42645   -0.8005  188.8490   50.2496   253.6298   275.4494   303.7045   331.9973   0   20  0 
12138.700274  87.42645   -0.8005  188.8490   50.2496   253.4923   275.1335   302.8999   331.4992   0   20  0 
12138.834492  87.42645   -0.7989  188.8510   50.2511   253.4842   274.9381   302.9982   331.8392   0   21  1 
12138.968710  87.43695   -0.7950  188.8370   50.2561   253.3140   274.9945   302.8732   332.3068   0   21  1 
12139.102928  87.43695   -0.7950  188.8370   50.2561   253.2440   274.6657   303.2918   331.2540   0   21  1 
12139.237146  87.43890   -0.7950  188.8350   50.2563   253.3212   275.1392   302.7195   331.0856   0   21  1 
12139.371364  87.44580   -0.7925  188.8260   50.2595   253.4960   274.8072   302.5749   331.1188   0   21  1 
12139.505582  87.44580   -0.7925  188.8260   50.2595   253.3931   274.6792   302.7286   330.7133   0   21  1 
12139.639800  87.44730   -0.7939  188.8250   50.2582   253.2462   274.4480   303.3008   331.1141   0   21  1 
12139.774018  87.45150   -0.7924  188.8200   50.2601   253.2434   274.6327   302.4834   331.1924   0   21  1 
12139.908236  87.45150   -0.7924  188.8200   50.2601   253.5119   274.6872   302.7817   331.1677   0   21  1 
12140.042454  87.45435   -0.7932  188.8180   50.2594   253.0063   274.8919   302.8934   331.3232   0   21  1 
12140.176672  87.45600   -0.7926  188.8170   50.2601   253.2130   275.3107   302.9010   331.4550   0   21  1 
12140.310890  87.45600   -0.7926  188.8170   50.2601   252.9070   274.5986   302.1303   331.0938   0   21  1 
12140.445108  87.45600   -0.7926  188.8170   50.2601   253.2985   275.1795   302.6504   331.6364   0   21  1 
12140.579326  87.34755   -0.9066  188.9660   50.1330   253.0027   275.1072   302.7209   332.0734   0   21  1 
12140.713544  87.34755   -0.9066  188.9660   50.1330   252.9414   275.4942   302.8808   331.4273   0   21  1 
12140.847762  87.27795   -0.9546  189.0650   50.0764   253.3680   275.0827   302.5297   331.0626   0   21  1 
12140.981980  87.27795   -0.9546  189.0650   50.0764   252.9903   275.3916   302.1717   331.5352   0   21  1 
12141.116198  87.27795   -0.9546  189.0650   50.0764   253.3384   275.6478   302.6073   331.9528   0   21  1 
12141.250416  86.93310   -1.0146  189.5890   49.9713   252.9356   275.1512   302.2645   332.0141   0   21  1 
12141.384634  86.74275   -1.0421  189.8780   49.9179   253.2362   275.0197   302.9423   331.5168   0   21  1 
12141.518852  86.74275   -1.0421  189.8780   49.9179   252.9625   275.2646   302.3678   331.9557   0   21  1 
12141.653070  86.74275   -1.0421  189.8780   49.9179   253.1596   275.4005   302.6680   332.0119   0   21  1 
12141.787288  86.35260   -1.0680  190.4750   49.8362   253.6356   275.5880   302.6550   333.0552   0   21  1 
12141.921506  86.35260   -1.0680  190.4750   49.8362   252.9050   275.4272   302.6159   332.2984   0   21  1 
12142.055724  86.05440   -1.0869  190.9300   49.7727   253.4719   275.0442   302.4133   331.8848   0   21  1 
12142.189942  85.73730   -1.1011  191.4140   49.7089   253.3340   275.0216   302.3248   332.1872   0   21  1 
12142.324160  85.73730   -1.1011  191.4140   49.7089   253.4209   275.1586   302.9718   331.4750   0   21  1 
12142.458378  85.73730   -1.1011  191.4140   49.7089   253.6073   275.3911   302.9478   331.8393   0   21  1 
12142.592596  85.19280   -1.1299  192.2410   49.5902   253.1844   275.3456   302.8165   332.1280   0   21  1 
12142.726814  85.19280   -1.1299  192.2410   49.5902   253.3295   274.9505   302.4618   331.8524   0   21  1 
12142.861032  85.04535   -1.1352  192.4650   49.5595   253.2713   274.9310   302.5249   331.5701   0   21  1 
12142.995250  85.04535   -1.1352  192.4650   49.5595   253.0268   274.6814   302.5553   331.3867   0   21  1 
12143.129468  85.04535   -1.1352  192.4650   49.5595   252.9188   274.6568   302.9408   331.1273   0   21  1 
12143.263686  84.50280   -1.1584  193.2850   49.4392   253.2555   274.6941   302.4937   330.8916   0   21  1 
12143.397904  84.27750   -1.1698  193.6240   49.3858   252.8174   274.5138   302.4724   331.1033   0   21  1 
12143.532122  84.27750   -1.1698  193.6240   49.3858   252.7674   274.9348   302.2066   331.5405   0   21  0 
12143.666340  83.88060   -1.1838  194.2210   49.2951   252.6668   275.0180   302.4741   331.7358   0   21  0 
12143.800558  83.88060   -1.1838  194.2210   49.2951   252.6207   274.6788   301.5717   330.8619   0   21  0 
12143.934776  83.88060   -1.1838  194.2210   49.2951   252.4156   274.8272   302.2005   331.9542   0   21  0 
12144.068994  83.80575   -1.1876  194.3330   49.2766   252.3232   274.5626   302.0386   331.7776   0   21  0 
12144.203212  83.59005   -1.1865  194.6590   49.2342   252.8525   274.4663   302.6539   331.6242   0   21  0 
12144.337430  83.59005   -1.1865  194.6590   49.2342   252.7764   274.4906   302.2297   331.3781   0   21  0 
12144.471648  83.33490   -1.0477  195.0880   49.3176   252.8982   274.8112   302.0538   331.2529   0   21  0 
12144.605866  83.20095   -0.8959  195.3400   49.4378   252.7484   274.4647   302.0146   331.3942   0   21  0 
12144.740084  83.20095   -0.8959  195.3400   49.4378   252.3976   274.8257   302.1978   331.4339   0   21  0 
12144.874302  83.13510   -0.8291  195.4620   49.4891   252.4805   274.4279   302.0234   331.4592   0   21  0 
12145.008520  83.04090   -0.7197  195.6420   49.5756   252.7519   274.3971   302.3800   331.8137   0   21  0 
12145.142738  83.04090   -0.7197  195.6420   49.5756   252.5344   274.2343   302.2007   331.6030   0   21  0 
12145.276956  83.02755   -0.6649  195.6820   49.6261   252.1666   275.2236   301.9644   331.7972   0   21  0 
12145.411174  83.02575   -0.6496  195.6910   49.6405   252.6994   274.7055   302.1265   331.7170   0   21  0 
12145.545392  83.02575   -0.6496  195.6910   49.6405   252.7739   274.3608   301.9280   331.5020   0   21  0 
12145.679610  83.02575   -0.6386  195.6960   49.6510   252.4467   274.4785   302.0118   331.7827   0   22  1 
12145.813828  83.02605   -0.6241  195.7020   49.6651   252.3327   274.3251   301.7057   331.0100   0   22  1 
12145.948046  83.02605   -0.6241  195.7020   49.6651   252.5691   274.6339   302.1832   331.0614   0   22  1 
12146.082264  83.02560   -0.6193  195.7050   49.6695   252.7462   274.9646   301.9869   331.4263   0   22  1 
12146.216482  83.02635   -0.6120  195.7080   49.6766   253.1411   274.5034   302.0632   331.2456   0   22  1 
12146.350700  83.02635   -0.6120  195.7080   49.6766   252.7488   274.6877   302.0048   331.3579   0   22  1 
12146.484918  83.02545   -0.6101  195.7110   49.6781   252.3689   274.4105   302.0164   331.3921   0   22  1 
12146.619136  83.02620   -0.6084  195.7120   49.6797   252.2841   274.6378   302.4072   330.6844   0   22  1 
12146.753354  83.02620   -0.6084  195.7120   49.6797   252.6796   274.4187   302.2453   331.3229   0   22  1 
12146.887572  83.02725   -0.6068  195.7130   49.6812   252.8056   274.6763   301.9726   331.0553   0   22  1 
12147.021790  83.02845   -0.6063  195.7130   49.6817   252.6506   274.2667   302.0186   331.0596   0   22  1 
12147.156008  83.02845   -0.6063  195.7130   49.6817   252.4941   274.7680   301.7500   331.6926   0   22  1 
12147.290226  83.02920   -0.6064  195.7130   49.6816   252.5949   274.6179   302.4312   331.4377   0   22  1 
12147.424444  83.07075   -0.5696  195.6640   49.7264   252.6849   274.6541   302.4695   331.5873   0   22  1 
12147.558662  83.07075   -0.5696  195.6640   49.7264   252.3575   274.7101   302.1954   331.0901   0   22  1 
12147.692880  83.07075   -0.5696  195.6640   49.7264   252.3230   274.7156   301.9367   331.5057   0   22  1 
12147.827098  83.33040   -0.3572  195.3430   49.9892   252.5234   274.2346   301.7281   331.2057   0   22  1 
12147.961316  83.33040   -0.3572  195.3430   49.9892   252.2352   274.5660   301.9076   330.9971   0   22  1 
12148.095534  83.42595   -0.3337  195.2060   50.0323   252.8974   274.6393   302.2297   330.7850   0   22  1 
12148.229752  83.42595   -0.3337  195.2060   50.0323   252.3262   274.6418   301.9726   330.9573   0   22  1 
12148.363970  83.42595   -0.3337  195.2060   50.0323   252.7744   274.4574   302.0414   331.6499   0   22  1 
12148.498188  83.85870   -0.2987  194.5580   50.1552   253.1020   274.7361   302.4592   330.7775   0   22  1 
12148.632406  84.10545   -0.2973  194.1810   50.2055   253.0996   274.4569   302.8178   331.2074   0   22  1 
12148.766624  84.10545   -0.2973  194.1810   50.2055   253.1049   274.6486   303.1504   331.2987   0   22  1 
12148.900842  84.10545   -0.2973  194.1810   50.2055   252.8848   274.2680   302.0654   330.1942   0   22  1 
12149.035060  84.53685   -0.3030  193.5180   50.2824   252.7685   274.7582   302.4078   331.5753   0   22  1 
12149.169278  84.53685   -0.3030  193.5180   50.2824   253.1129   274.7205   302.1112   330.9707   0   22  1 
12149.303496  84.53685   -0.3030  193.5180   50.2824   253.1127   274.6294   302.4091   331.3952   0   22  1 
12149.437714  84.99345   -0.3118  192.8130   50.3570   252.4511   274.3775   302.1101   331.2048   0   22  1 
12149.571932  85.13475   -0.3160  192.5940   50.3778   253.2937   274.5702   302.3798   330.4562   0   22  1 
12149.706150  85.13475   -0.3160  192.5940   50.3778   252.7490   274.5908   301.7082   331.4630   0   22  1 
12149.840368  85.13475   -0.3160  192.5940   50.3778   252.8023   274.5253   302.2023   330.8137   0   22  1 
12149.974586  85.65720   -0.3299  191.7830   50.4525   253.0139   274.6482   302.2055   331.1571   0   22  1 
12150.108804  85.65720   -0.3299  191.7830   50.4525   252.9360   275.1612   302.5599   331.2601   0   22  1 
12150.243022  85.65720   -0.3299  191.7830   50.4525   253.2791   274.7201   302.4033   330.7274   0   22  1 
12150.377240  85.89360   -0.3406  191.4140   50.4801   252.6762   274.4478   301.8884   330.8374   0   22  1 
12150.511458  85.89360   -0.3406  191.4140   50.4801   252.7662   274.1038   302.3006   330.9006   0   22  1 
12150.645676  86.31660   -0.3559  190.7540   50.5303   253.0999   274.5533   302.0062   330.4365   0   22  0 
12150.779894  86.55420   -0.3621  190.3830   50.5593   253.0675   274.3357   302.4798   330.6333   0   22  0 
12150.914112  86.55420   -0.3621  190.3830   50.5593   253.0217   274.6288   302.4732   331.4539   0   22  0 
12151.048330  86.55420   -0.3621  190.3830   50.5593   253.3154   274.6626   302.6130   331.0114   0   22  0 
12151.182548  86.82960   -0.3718  189.9520   50.5888   252.5575   274.6058   302.7390   331.1225   0   22  0 
12151.316766  86.82960   -0.3718  189.9520   50.5888   252.9707   274.9733   302.5168   331.2198   0   22  0 
12151.450984  86.99280   -0.4406  189.6830   50.5431   253.3580   274.8821   302.7081   331.2403   0   22  0 
12151.585202  87.16800   -0.4328  189.4120   50.5742   253.1375   274.8102   302.3935   330.7376   0   22  0 
12151.719420  87.16800   -0.4328  189.4120   50.5742   252.7179   274.6688   302.3930   331.2352   0   22  0 
12151.853638  87.29520   -0.4290  189.2150   50.5946   252.9617   275.0898   302.1323   330.8868   0   22  0 
12151.987856  87.39945   -0.4405  189.0510   50.5965   253.2833   274.6040   302.3050   331.6604   0   22  0 
12152.122074  87.39945   -0.4405  189.0510   50.5965   253.2353   274.6094   302.5422   331.1042   0   22  0 
12152.256292  87.43440   -0.4326  188.9990   50.6087   253.2419   274.5622   302.5235   331.2541   0   23  1 
12152.390510  87.42765   -0.4311  189.0110   50.6092   253.0311   274.8157   302.7406   331.5065   0   23  1 
12152.524728  87.42765   -0.4311  189.0110   50.6092   253.0603   275.1156   302.5968   331.3041   0   23  1 
12152.658946  87.43530   -0.4311  189.0000   50.6101   252.9719   275.2468   302.7897   331.5548   0   23  1 
12152.793164  87.43530   -0.4311  189.0000   50.6101   253.1643   274.7482   302.7497   331.3533   0   23  1 
12152.927382  87.44010   -0.4267  188.9950   50.6149   253.3125   274.8878   302.3679   331.2634   0   23  1 
12153.061600  87.44280   -0.4286  188.9920   50.6133   253.4811   274.9833   302.8503   331.2032   0   23  1 
12153.195818  87.44280   -0.4286  188.9920   50.6133   253.4167   274.9462   302.4440   331.2118   0   23  1 
12153.330036  87.44850   -0.4249  188.9850   50.6176   253.5960   275.0221   302.6763   331.5880   0   23  1 
12153.464254  87.45300   -0.4238  188.9810   50.6190   252.9441   274.8545   302.8658   330.9066   0   23  1 
12153.598472  87.45300   -0.4238  188.9810   50.6190   253.4215   274.5437   302.6720   331.5020   0   23  1 
12153.732690  87.45300   -0.4238  188.9810   50.6190   253.5139   274.5609   302.4596   331.2187   0   23  1 
12153.866908  87.43260   -0.4444  189.0120   50.5957   253.2643   274.3997   302.7151   331.7704   0   23  1 
12154.001126  87.43260   -0.4444  189.0120   50.5957   253.1685   274.3002   303.1634   330.4875   0   23  1 
12154.135344  87.38415   -0.4879  189.0800   50.5462   253.2070   274.2474   302.6024   330.5109   0   23  1 
12154.269562  87.27210   -0.5823  189.2370   50.4379   252.8198   273.8247   302.6409   330.5337   0   23  1 
12154.403780  87.27210   -0.5823  189.2370   50.4379   252.8589   274.0346   302.4921   330.4695   0   23  1 
12154.537998  87.27210   -0.5823  189.2370   50.4379   253.0392   274.4055   302.6682   330.8933   0   23  1 
12154.672216  87.05700   -0.6318  189.5640   50.3601   253.1323   274.7071   302.3827   331.0431   0   23  1 
12154.806434  87.05700   -0.6318  189.5640   50.3601   252.5803   274.0348   301.9613   330.8952   0   23  1 
12154.940652  86.80320   -0.6662  189.9530   50.2910   252.8444   274.5226   302.4803   331.2392   0   23  1 
12155.074870  86.80320   -0.6662  189.9530   50.2910   252.9866   274.4508   302.0107   331.3260   0   23  1 
12155.209088  86.80320   -0.6662  189.9530   50.2910   252.8310   274.4135   301.4660   331.2271   0   23  1 
12155.343306  86.27040   -0.7018  190.7740   50.1780   252.9654   274.5071   302.4862   331.1072   0   23  1 
12155.477524  85.97835   -0.7228  191.2220   50.1121   252.9868   274.3857   302.4965   330.8560   0   23  1 
12155.611742  85.97835   -0.7228  191.2220   50.1121   252.8443   274.5458   302.3896   331.4634   0   23  1 
12155.745960  85.97835   -0.7228  191.2220   50.1121   252.9300   273.9574   302.0701   330.4087   0   23  1 
12155.880178  85.51620   -0.7454  191.9310   50.0148   253.4481   274.5640   302.3651   330.5687   0   23  1 
12156.014396  85.51620   -0.7454  191.9310   50.0148   253.0390   273.9677   302.2630   330.9898   0   23  1 
12156.148614  85.29450   -0.7563  192.2700   49.9665   253.0697   274.2267   302.1860   330.9620   0   23  1 
12156.282832  84.97695   -0.7698  192.7550   49.8977   252.9375   274.5127   302.2722   331.2466   0   23  1 
12156.417050  84.97695   -0.7698  192.7550   49.8977   252.9532   274.5028   302.7754   330.8423   0   23  1 
12156.551268  84.97695   -0.7698  192.7550   49.8977   252.5246   274.1354   302.6128   331.0012   0   23  1 
12156.685486  84.50805   -0.7914  193.4680   49.7907   252.7924   274.2553   302.6329   331.1206   0   23  1 
12156.819704  84.50805   -0.7914  193.4680   49.7907   252.5408   274.2354   301.9263   330.6328   0   23  1 
12156.953922  84.35955   -0.7989  193.6930   49.7552   252.7421   273.8995   302.1009   330.8421   0   23  0 
12157.088140  84.35955   -0.7989  193.6930   49.7552   252.8504   274.0895   302.3298   330.7224   0   23  0 
12157.222358  84.35955   -0.7989  193.6930   49.7552   252.6593   274.2172   301.6515   331.1013   0   23  0 
12157.356576  83.74365   -0.8216  194.6250   49.6117   252.6176   273.8192   302.3849   330.5084   0   23  0 
12157.490794  83.74365   -0.8216  194.6250   49.6117   252.4258   274.0049   302.2114   330.4828   0   23  0 
12157.625012  83.74365   -0.8216  194.6250   49.6117   252.6466   274.2517   302.0879   330.7272   0   23  0 
12157.759230  83.54400   -0.8015  194.9350   49.5904   252.4374   273.7416   302.0633   331.2249   0   23  0 
12157.893448  83.41350   -0.6983  195.1670   49.6642   252.5931   274.2068   301.8822   330.8148   0   23  0 
12158.027666  83.41350   -0.6983  195.1670   49.6642   252.6083   273.9472   302.0206   330.5644   0   23  0 
12158.161884  83.35710   -0.6194  195.2790   49.7295   252.5048   273.3183   302.0769   330.5556   0   23  0 
12158.296102  83.22930   -0.5008  195.5130   49.8182   252.5361   273.9324   301.8937   330.7714   0   23  0 
12158.430320  83.22930   -0.5008  195.5130   49.8182   252.3226   274.2444   302.1437   330.8737   0   23  0 
12158.564538  83.06460   -0.3558  195.8140   49.9241   252.5083   273.6760   302.0229   330.8234   0   23  0 
12158.698756  83.02845   -0.3036  195.8880   49.9670   252.4514   274.0343   302.3674   330.5968   0   23  0 
12158.832974  83.02845   -0.3036  195.8880   49.9670   252.6221   274.0102   302.5425   330.6855   0   23  0 
12158.967192  83.02785   -0.2832  195.8970   49.9866   252.2066   273.9273   301.8116   330.3907   0   23  0 
12159.101410  83.03085   -0.2750  195.8960   49.9952   252.1627   273.2883   302.0218   329.7798   0   23  0 
12159.235628  83.03085   -0.2750  195.8960   49.9952   252.3312   273.9252   301.4822   330.6407   0   23  0 
12159.369846  83.02530   -0.2610  195.9110   50.0074   252.1501   274.1580   301.5458   330.9840   0   24  1 
12159.504064  83.02635   -0.2522  195.9140   50.0160   252.0348   273.9586   301.7045   330.2663   0   24  1 
12159.638282  83.02635   -0.2522  195.9140   50.0160   252.2548   274.1466   301.4261   330.9525   0   24  1 
12159.772500  83.02425   -0.2469  195.9200   50.0206   252.6513   274.4563   301.9651   330.9079   0   24  1 
12159.906718  83.02560   -0.2445  195.9200   50.0230   252.5369   274.1684   301.9550   330.9868   0   24  1 
12160.040936  83.02560   -0.2445  195.9200   50.0230   252.1063   274.6982   301.7833   331.4139   0   24  1 
12160.175154  83.02500   -0.2409  195.9230   50.0263   252.1538   274.4095   302.0312   331.3241   0   24  1 
12160.309372  83.02680   -0.2407  195.9220   50.0266   252.5623   274.1296   302.0232   330.8389   0   24  1 
12160.443590  83.02680   -0.2407  195.9220   50.0266   252.2784   274.2886   301.8104   331.2214   0   24  1 
12160.577808  83.02830   -0.2389  195.9230   50.0283   252.5203   274.0741   301.9466   330.5283   0   24  1 
12160.712026  83.02890   -0.2369  195.9240   50.0302   252.4438   274.3051   301.9000   330.9570   0   24  1 
12160.846244  83.02890   -0.2369  195.9240   50.0302   252.1200   273.9278   301.8515   330.8639   0   24  1 
12160.980462  83.02980   -0.2380  195.9230   50.0292   252.1521   274.7088   301.9598   330.5476   0   24  1 
12161.114680  83.02980   -0.2380  195.9230   50.0292   252.1665   274.3497   301.7495   330.8602   0   24  1 
12161.248898  83.02980   -0.2380  195.9230   50.0292   252.2562   274.5522   302.3803   331.1038   0   24  1 
12161.383116  83.20725   -0.0514  195.7190   50.2498   252.6161   274.0464   301.8742   330.9137   0   24  1 
12161.517334  83.20725   -0.0514  195.7190   50.2498   252.4552   273.7912   301.7528   330.5578   0   24  1 
12161.651552  83.20725   -0.0514  195.7190   50.2498   252.5435   274.0140   301.8523   330.4973   0   24  1 
12161.785770  83.49360    0.0582  195.3190   50.4180   252.7526   274.0117   302.4853   330.6340   0   24  1 
12161.919988  83.72370    0.0787  194.9730   50.4860   252.7574   274.6047   302.9305   331.3530   0   24  1 
12162.054206  83.72370    0.0787  194.9730   50.4860   252.8001   273.9447   302.3066   330.5068   0   24  1 
12162.188424  83.72370    0.0787  194.9730   50.4860   252.8056   274.1220   302.1064   330.6347   0   24  1 
12162.322642  84.17715    0.0886  194.2780   50.5871   252.7633   274.2183   302.0407   330.7169   0   24  1 
12162.456860  84.17715    0.0886  194.2780   50.5871   252.8699   273.7792   302.3712   330.1610   0   24  1 
12162.591078  84.39225    0.0860  193.9450   50.6264   253.0582   273.9140   302.4393   329.9217   0   24  1 
12162.725296  84.69720    0.0822  193.4720   50.6805   252.7882   274.1213   302.5094   330.4092   0   24  1 
12162.859514  84.69720    0.0822  193.4720   50.6805   253.4158   274.1498   302.3717   330.5222   0   24  1 
12162.993732  84.69720    0.0822  193.4720   50.6805   252.7141   274.4631   301.8879   330.8526   0   24  1 
12163.127950  85.21755    0.0665  192.6600   50.7592   252.6878   274.3589   301.7303   330.6136   0   24  1 
12163.262168  85.21755    0.0665  192.6600   50.7592   252.9276   275.1212   301.5185   330.8702   0   24  1 
12163.396386  85.36020    0.0621  192.4370   50.7797   252.3800   274.3422   301.9791   331.0774   0   24  1 
12163.530604  85.36020    0.0621  192.4370   50.7797   252.5272   274.3453   302.3920   331.0812   0   24  1 
12163.664822  85.36020    0.0621  192.4370   50.7797   252.7821   274.4569   302.3416   331.0012   0   24  1 
12163.799040  85.87740    0.0446  191.6260   50.8489   252.9465   274.6363   302.2395   330.9039   0   24  1 
12163.933258  86.08815    0.0380  191.2950   50.8760   252.9077   274.5049   302.1433   331.1964   0   24  0 
12164.067476  86.08815    0.0380  191.2950   50.8760   252.8681   274.1619   302.2567   331.3273   0    0  0 
12164.201694  86.08815    0.0380  191.2950   50.8760   252.8950   274.5638   301.8641   331.2899   0    0  0 
12164.335912  86.08815    0.0380  191.2950   50.8760   252.8659   274.5620   302.3319   331.1969   0    0  0 
12164.470130  86.08815    0.0380  191.2950   50.8760   252.9127   275.1943   302.1538   330.9955   0    0  0 
12164.604348  86.66475    0.0170  190.3870   50.9424   253.0969   274.4768   302.5549   331.3387   0    0  0 
12164.738566  86.66475    0.0170  190.3870   50.9424   253.1651   274.7353   302.5610   330.4741   0    0  0 
12164.872784  86.66475    0.0170  190.3870   50.9424   253.4494   274.5376   302.6348   330.7763   0    0  0 
12165.007002  86.66475    0.0170  190.3870   50.9424   253.3718   274.2920   302.4804   331.0666   0    0  0 
12165.141220  86.84415   -0.0672  190.0870   50.8846   253.5263   274.7733   301.9671   330.6256   0    0  0 
12165.275438  86.84415   -0.0672  190.0870   50.8846   253.1955   274.5574   302.5090   331.1131   0    0  0 
12165.409656  86.84415   -0.0672  190.0870   50.8846   253.3101   274.5745   302.5587   331.1274   0    0  0 
12165.543874  86.84415   -0.0672  190.0870   50.8846   253.1612   274.3312   302.6671   330.6294   0    0  0 
12165.678092  86.84415   -0.0672  190.0870   50.8846   253.2270   274.8671   302.3997   330.9719   0    0  0 
12165.812310  86.84415   -0.0672  190.0870   50.8846   253.2661   274.6705   303.1552   331.2126   0    0  0 
12165.946528  86.84415   -0.0672  190.0870   50.8846   253.0822   274.8924   302.1940   330.8515   0    0  0 
12166.080746  86.84415   -0.0672  190.0870   50.8846   253.5198   274.5364   302.4473   330.9704   0    0  0 
12166.214964  86.93340   -0.0601  189.9510   50.9040   263.0900   286.7033   315.7724   344.1099  -1    0  0 
12166.349182  86.93340   -0.0601  189.9510   50.9040   263.6595   287.1457   316.3416   345.5392   1    0  0 
12166.483400  86.93340   -0.0601  189.9510   50.9040   270.6503   295.8015   326.1911   354.7833   1    0  0 
12166.617618  86.91735   -0.0607  189.9840   50.9004   270.9443   296.2962   326.4615   354.5610   1    0  0 
12166.751836  86.91945   -0.0558  189.9830   50.9055   270.9637   295.7875   326.2448   354.8294   1    0  0 
12166.886054  86.91945   -0.0558  189.9830   50.9055   270.6936   295.8081   326.2270   355.1259   1    0  0 
12167.020272  86.92185   -0.0599  189.9800   50.9016   270.8286   296.1323   326.1689   355.0566   1    0  0 
12167.154490  86.92230   -0.0617  189.9800   50.8998   271.0841   295.6243   325.8442   354.5517   1    0  0 
12167.288708  86.92230   -0.0617  189.9800   50.8998   270.6524   295.4704   325.9673   354.2329   1    0  0 
12167.422926  86.92230   -0.0587  189.9820   50.9026   270.8341   295.2047   325.9320   354.1454   1    0  0 
12167.557144  86.92215   -0.0607  189.9830   50.9005   270.6060   295.4165   325.2861   353.9734   1    0  0 
12167.691362  86.92215   -0.0607  189.9830   50.9005   270.7801   295.3686   325.9379   354.0471   1    0  0 
12167.825580  86.92170   -0.0562  189.9860   50.9048   270.7391   296.0134   325.4701   354.5302   1    0  0 
12167.959798  86.92215   -0.0584  189.9860   50.9026   271.1228   295.9196   325.6718   355.0017   1    0  0 
12168.094016  86.92215   -0.0584  189.9860   50.9026   270.5900   295.8898   325.7583   355.0855   1    0  0 
